Time,Invert B
(ms),(mV)

-1.32129597,-73.99212000
-1.31873597,-73.99212000
-1.31617597,-69.50591000
-1.31361597,-73.99212000
-1.31105597,-73.99212000
-1.30849597,-69.50591000
-1.30593597,-73.99212000
-1.30337597,-73.99212000
-1.30081597,-69.50591000
-1.29825597,-73.99212000
-1.29569597,-69.50591000
-1.29313597,-73.99212000
-1.29057597,-69.50591000
-1.28801597,-73.99212000
-1.28545597,-73.99212000
-1.28289598,-69.50591000
-1.28033598,-69.50591000
-1.27777598,-73.99212000
-1.27521598,-69.50591000
-1.27265598,-69.50591000
-1.27009598,-69.50591000
-1.26753598,-78.46308000
-1.26497598,-69.50591000
-1.26241598,-73.99212000
-1.25985598,-73.99212000
-1.25729598,-73.99212000
-1.25473598,-73.99212000
-1.25217598,-73.99212000
-1.24961598,-73.99212000
-1.24705598,-73.99212000
-1.24449598,-73.99212000
-1.24193598,-73.99212000
-1.23937598,-73.99212000
-1.23681598,-73.99212000
-1.23425598,-69.50591000
-1.23169598,-73.99212000
-1.22913598,-73.99212000
-1.22657598,-69.50591000
-1.22401598,-73.99212000
-1.22145598,-73.99212000
-1.21889598,-73.99212000
-1.21633598,-73.99212000
-1.21377598,-73.99212000
-1.21121598,-73.99212000
-1.20865598,-73.99212000
-1.20609598,-73.99212000
-1.20353598,-73.99212000
-1.20097598,-73.99212000
-1.19841598,-73.99212000
-1.19585598,-73.99212000
-1.19329598,-69.50591000
-1.19073598,-73.99212000
-1.18817598,-73.99212000
-1.18561598,-78.46308000
-1.18305598,-73.99212000
-1.18049598,-73.99212000
-1.17793598,-73.99212000
-1.17537598,-73.99212000
-1.17281598,-73.99212000
-1.17025598,-73.99212000
-1.16769598,-73.99212000
-1.16513598,-78.46308000
-1.16257598,-73.99212000
-1.16001598,-69.50591000
-1.15745598,-73.99212000
-1.15489598,-73.99212000
-1.15233598,-69.50591000
-1.14977598,-69.50591000
-1.14721598,-73.99212000
-1.14465598,-73.99212000
-1.14209598,-73.99212000
-1.13953598,-73.99212000
-1.13697598,-69.50591000
-1.13441598,-73.99212000
-1.13185598,-69.50591000
-1.12929598,-69.50591000
-1.12673598,-73.99212000
-1.12417598,-69.50591000
-1.12161598,-69.50591000
-1.11905598,-69.50591000
-1.11649598,-69.50591000
-1.11393598,-69.50591000
-1.11137598,-69.50591000
-1.10881598,-69.50591000
-1.10625598,-73.99212000
-1.10369598,-73.99212000
-1.10113598,-73.99212000
-1.09857598,-73.99212000
-1.09601598,-73.99212000
-1.09345598,-69.50591000
-1.09089598,-69.50591000
-1.08833598,-73.99212000
-1.08577598,-73.99212000
-1.08321598,-69.50591000
-1.08065598,-69.50591000
-1.07809598,-73.99212000
-1.07553598,-69.50591000
-1.07297598,-69.50591000
-1.07041598,-73.99212000
-1.06785598,-69.50591000
-1.06529598,-73.99212000
-1.06273598,-69.50591000
-1.06017598,-69.50591000
-1.05761598,-73.99212000
-1.05505598,-69.50591000
-1.05249598,-69.50591000
-1.04993598,-69.50591000
-1.04737598,-69.50591000
-1.04481598,-69.50591000
-1.04225598,-69.50591000
-1.03969598,-69.50591000
-1.03713598,-69.50591000
-1.03457598,-69.50591000
-1.03201598,-69.50591000
-1.02945598,-69.50591000
-1.02689598,-69.50591000
-1.02433598,-69.50591000
-1.02177598,-69.50591000
-1.01921598,-69.50591000
-1.01665598,-69.50591000
-1.01409598,-69.50591000
-1.01153598,-69.50591000
-1.00897598,-69.50591000
-1.00641598,-69.50591000
-1.00385598,-69.50591000
-1.00129598,-69.50591000
-0.99873598,-69.50591000
-0.99617598,-69.50591000
-0.99361598,-69.50591000
-0.99105598,-69.50591000
-0.98849598,-69.50591000
-0.98593598,-69.50591000
-0.98337598,-69.50591000
-0.98081598,-69.50591000
-0.97825598,-69.50591000
-0.97569598,-69.50591000
-0.97313598,-69.50591000
-0.97057598,-69.50591000
-0.96801598,-69.50591000
-0.96545598,-69.50591000
-0.96289598,-69.50591000
-0.96033598,-69.50591000
-0.95777598,-69.50591000
-0.95521598,-69.50591000
-0.95265598,-69.50591000
-0.95009598,-69.50591000
-0.94753598,-69.50591000
-0.94497598,-69.50591000
-0.94241598,-69.50591000
-0.93985598,-69.50591000
-0.93729598,-69.50591000
-0.93473598,-69.50591000
-0.93217598,-69.50591000
-0.92961598,-69.50591000
-0.92705598,-69.50591000
-0.92449598,-69.50591000
-0.92193598,-69.50591000
-0.91937598,-69.50591000
-0.91681598,-69.50591000
-0.91425598,-69.50591000
-0.91169598,-73.99212000
-0.90913598,-69.50591000
-0.90657598,-69.50591000
-0.90401598,-69.50591000
-0.90145598,-69.50591000
-0.89889598,-69.50591000
-0.89633598,-69.50591000
-0.89377598,-69.50591000
-0.89121598,-69.50591000
-0.88865598,-69.50591000
-0.88609598,-69.50591000
-0.88353598,-69.50591000
-0.88097598,-69.50591000
-0.87841598,-69.50591000
-0.87585598,-69.50591000
-0.87329598,-69.50591000
-0.87073598,-69.50591000
-0.86817598,-69.50591000
-0.86561598,-69.50591000
-0.86305598,-69.50591000
-0.86049598,-69.50591000
-0.85793598,-69.50591000
-0.85537598,-69.50591000
-0.85281598,-69.50591000
-0.85025598,-69.50591000
-0.84769598,-69.50591000
-0.84513598,-69.50591000
-0.84257598,-69.50591000
-0.84001598,-69.50591000
-0.83745598,-69.50591000
-0.83489598,-69.50591000
-0.83233598,-69.50591000
-0.82977598,-69.50591000
-0.82721598,-69.50591000
-0.82465598,-69.50591000
-0.82209598,-69.50591000
-0.81953598,-69.50591000
-0.81697598,-69.50591000
-0.81441598,-65.03493000
-0.81185598,-82.93404000
-0.80929598,-60.56398000
-0.80673598,-78.46308000
-0.80417598,-105.28880000
-0.80161598,-123.17270000
-0.79905598,-141.07180000
-0.79649598,-154.48470000
-0.79393598,-158.95570000
-0.79137598,-172.36850000
-0.78881598,-176.83950000
-0.78625598,-185.78140000
-0.78369598,-190.26760000
-0.78113598,-194.73860000
-0.77857598,-203.68050000
-0.77601598,-203.68050000
-0.77345598,-212.62240000
-0.77089598,-217.09340000
-0.76833598,-221.56440000
-0.76577598,-221.56440000
-0.76321598,-226.03530000
-0.76065598,-230.50630000
-0.75809598,-230.50630000
-0.75553598,-230.50630000
-0.75297598,-234.97720000
-0.75041598,-239.44820000
-0.74785598,-239.44820000
-0.74529598,-239.44820000
-0.74273598,-239.44820000
-0.74017598,-243.91920000
-0.73761598,-243.91920000
-0.73505598,-243.91920000
-0.73249598,-243.91920000
-0.72993598,-243.91920000
-0.72737598,-243.91920000
-0.72481598,-243.91920000
-0.72225598,-243.91920000
-0.71969598,-243.91920000
-0.71713598,-239.44820000
-0.71457598,-239.44820000
-0.71201598,-239.44820000
-0.70945598,-234.97720000
-0.70689598,-234.97720000
-0.70433598,-230.50630000
-0.70177598,-230.50630000
-0.69921598,-230.50630000
-0.69665598,-230.50630000
-0.69409598,-226.03530000
-0.69153598,-221.56440000
-0.68897598,-221.56440000
-0.68641598,-217.09340000
-0.68385598,-217.09340000
-0.68129598,-212.62240000
-0.67873598,-208.15150000
-0.67617598,-208.15150000
-0.67361598,-203.68050000
-0.67105598,-199.20960000
-0.66849598,-199.20960000
-0.66593598,-194.73860000
-0.66337598,-194.73860000
-0.66081598,-190.26760000
-0.65825598,-185.78140000
-0.65569598,-185.78140000
-0.65313598,-181.31050000
-0.65057598,-176.83950000
-0.64801598,-176.83950000
-0.64545598,-167.89760000
-0.64289598,-167.89760000
-0.64033598,-167.89760000
-0.63777598,-163.42660000
-0.63521598,-158.95570000
-0.63265598,-154.48470000
-0.63009598,-150.01370000
-0.62753598,-150.01370000
-0.62497598,-145.54280000
-0.62241598,-141.07180000
-0.61985598,-141.07180000
-0.61729598,-136.60080000
-0.61473598,-132.12990000
-0.61217598,-132.12990000
-0.60961598,-127.64370000
-0.60705598,-123.17270000
-0.60449598,-123.17270000
-0.60193598,-118.70170000
-0.59937598,-114.23080000
-0.59681598,-114.23080000
-0.59425598,-109.75980000
-0.59169598,-109.75980000
-0.58913598,-105.28880000
-0.58657598,-105.28880000
-0.58401598,-100.81790000
-0.58145598,-96.34693000
-0.57889598,-96.34693000
-0.57633598,-91.87596000
-0.57377598,-87.40501000
-0.57121598,-87.40501000
-0.56865598,-87.40501000
-0.56609598,-82.93404000
-0.56353598,-78.46308000
-0.56097598,-78.46308000
-0.55841598,-78.46308000
-0.55585598,-73.99212000
-0.55329598,-69.50591000
-0.55073598,-69.50591000
-0.54817598,-69.50591000
-0.54561598,-65.03493000
-0.54305598,-60.56398000
-0.54049598,-60.56398000
-0.53793598,-60.56398000
-0.53537598,-60.56398000
-0.53281598,-56.09302000
-0.53025598,-51.62206000
-0.52769598,-51.62206000
-0.52513598,-51.62206000
-0.52257598,-47.15109000
-0.52001598,-47.15109000
-0.51745598,-42.68013000
-0.51489598,-42.68013000
-0.51233598,-42.68013000
-0.50977598,-38.20917000
-0.50721598,-38.20917000
-0.50465598,-33.73821000
-0.50209598,-33.73821000
-0.49953598,-33.73821000
-0.49697598,-33.73821000
-0.49441598,-33.73821000
-0.49185598,-29.26725000
-0.48929598,-29.26725000
-0.48673598,-24.79629000
-0.48417598,-24.79629000
-0.48161598,-24.79629000
-0.47905598,-24.79629000
-0.47649598,-20.32533000
-0.47393598,-24.79629000
-0.47137598,-20.32533000
-0.46881598,-20.32533000
-0.46625598,-15.85437000
-0.46369598,-15.85437000
-0.46113598,-15.85437000
-0.45857598,-15.85437000
-0.45601598,-15.85437000
-0.45345598,-15.85437000
-0.45089598,-15.85437000
-0.44833598,-15.85437000
-0.44577598,-11.38340000
-0.44321598,-11.38340000
-0.44065598,-11.38340000
-0.43809598,-11.38340000
-0.43553598,-11.38340000
-0.43297598,-6.91244200
-0.43041598,-6.91244200
-0.42785598,-6.91244200
-0.42529598,-6.91244200
-0.42273598,-6.91244200
-0.42017598,-6.91244200
-0.41761598,-6.91244200
-0.41505598,-6.91244200
-0.41249598,-6.91244200
-0.40993598,-6.91244200
-0.40737598,-6.91244200
-0.40481598,-6.91244200
-0.40225598,-6.91244200
-0.39969598,-6.91244200
-0.39713598,-6.91244200
-0.39457598,-6.91244200
-0.39201598,-2.44148100
-0.38945598,-6.91244200
-0.38689598,-2.44148100
-0.38433598,-6.91244200
-0.38177598,-6.91244200
-0.37921598,-2.44148100
-0.37665598,-2.44148100
-0.37409598,-6.91244200
-0.37153598,-2.44148100
-0.36897598,-2.44148100
-0.36641598,-6.91244200
-0.36385598,-2.44148100
-0.36129598,-2.44148100
-0.35873598,-2.44148100
-0.35617598,-2.44148100
-0.35361598,-2.44148100
-0.35105598,-6.91244200
-0.34849598,-2.44148100
-0.34593598,-6.91244200
-0.34337598,-2.44148100
-0.34081598,-6.91244200
-0.33825598,-6.91244200
-0.33569598,-2.44148100
-0.33313598,-6.91244200
-0.33057598,-6.91244200
-0.32801598,-6.91244200
-0.32545598,-6.91244200
-0.32289598,-6.91244200
-0.32033598,-6.91244200
-0.31777598,-6.91244200
-0.31521598,-6.91244200
-0.31265598,-6.91244200
-0.31009598,-6.91244200
-0.30753598,-6.91244200
-0.30497598,-6.91244200
-0.30241598,-6.91244200
-0.29985598,-6.91244200
-0.29729598,-6.91244200
-0.29473598,-6.91244200
-0.29217598,-6.91244200
-0.28961598,51.22532000
-0.28705598,145.13080000
-0.28449598,230.10950000
-0.28193598,292.71830000
-0.27937598,337.44310000
-0.27681598,377.68180000
-0.27425598,400.05190000
-0.27169598,422.40670000
-0.26913598,444.77670000
-0.26657598,458.18960000
-0.26401598,476.07350000
-0.26145598,493.95730000
-0.25889598,Infinity
-0.25633598,Infinity
-0.25377598,Infinity
-0.25121598,Infinity
-0.24865598,Infinity
-0.24609598,Infinity
-0.24353598,Infinity
-0.24097598,Infinity
-0.23841598,Infinity
-0.23585598,Infinity
-0.23329598,Infinity
-0.23073598,Infinity
-0.22817598,Infinity
-0.22561598,Infinity
-0.22305598,Infinity
-0.22049598,Infinity
-0.21793598,Infinity
-0.21537598,Infinity
-0.21281598,Infinity
-0.21025598,Infinity
-0.20769598,Infinity
-0.20513598,Infinity
-0.20257598,Infinity
-0.20001598,Infinity
-0.19745598,Infinity
-0.19489598,Infinity
-0.19233598,Infinity
-0.18977598,Infinity
-0.18721598,Infinity
-0.18465598,Infinity
-0.18209598,Infinity
-0.17953598,Infinity
-0.17697598,Infinity
-0.17441598,Infinity
-0.17185598,Infinity
-0.16929598,Infinity
-0.16673598,Infinity
-0.16417598,Infinity
-0.16161598,Infinity
-0.15905598,Infinity
-0.15649598,Infinity
-0.15393598,Infinity
-0.15137598,Infinity
-0.14881598,493.95730000
-0.14625598,485.01540000
-0.14369598,476.07350000
-0.14113598,467.13150000
-0.13857598,458.18960000
-0.13601598,449.24770000
-0.13345598,440.29050000
-0.13089598,426.87760000
-0.12833598,422.40670000
-0.12577598,413.46470000
-0.12321598,400.05190000
-0.12065598,391.10990000
-0.11809598,377.68180000
-0.11553598,368.73990000
-0.11297598,359.79790000
-0.11041598,350.85600000
-0.10785598,341.91410000
-0.10529598,332.97220000
-0.10273598,324.01500000
-0.10017598,310.60210000
-0.09761598,306.13110000
-0.09505598,292.71830000
-0.09249598,283.77640000
-0.08993598,274.83440000
-0.08737598,265.87720000
-0.08481598,256.93530000
-0.08225598,247.99340000
-0.07969598,239.05150000
-0.07713598,230.10950000
-0.07457598,221.16760000
-0.07201598,207.73950000
-0.06945598,198.79760000
-0.06689598,194.32660000
-0.06433598,189.85560000
-0.06177598,176.44270000
-0.05921598,167.50080000
-0.05665598,163.02990000
-0.05409598,154.07270000
-0.05153598,140.65980000
-0.04897598,131.71790000
-0.04641598,127.24690000
-0.04385598,118.30500000
-0.04129598,109.36310000
-0.03873598,104.89210000
-0.03617598,95.93493000
-0.03361598,86.99300000
-0.03105598,82.52204000
-0.02849598,73.58012000
-0.02593598,64.63820000
-0.02337598,55.69627000
-0.02081598,51.22532000
-0.01825598,46.75435000
-0.01569598,37.79717000
-0.01313598,28.85525000
-0.01057598,24.38429000
-0.00801598,19.91333000
-0.00545598,10.97140000
-0.00289598,2.02948100
-0.00033598,-6.91244200
0.00222402,-11.38340000
0.00478402,-15.85437000
0.00734402,-20.32533000
0.00990402,-24.79629000
0.01246402,-33.73821000
0.01502402,-38.20917000
0.01758402,-42.68013000
0.02014402,-51.62206000
0.02270402,-51.62206000
0.02526402,-60.56398000
0.02782402,-65.03493000
0.03038402,-69.50591000
0.03294402,-78.46308000
0.03550402,-78.46308000
0.03806402,-87.40501000
0.04062402,-87.40501000
0.04318402,-96.34693000
0.04574402,-100.81790000
0.04830402,-105.28880000
0.05086402,-109.75980000
0.05342402,-114.23080000
0.05598402,-118.70170000
0.05854402,-118.70170000
0.06110402,-123.17270000
0.06366402,-132.12990000
0.06622402,-132.12990000
0.06878402,-136.60080000
0.07134402,-141.07180000
0.07390402,-141.07180000
0.07646402,-150.01370000
0.07902402,-150.01370000
0.08158402,-154.48470000
0.08414402,-158.95570000
0.08670402,-158.95570000
0.08926402,-163.42660000
0.09182402,-167.89760000
0.09438402,-172.36850000
0.09694402,-176.83950000
0.09950402,-176.83950000
0.10206402,-176.83950000
0.10462402,-181.31050000
0.10718402,-185.78140000
0.10974402,-185.78140000
0.11230402,-190.26760000
0.11486402,-194.73860000
0.11742402,-194.73860000
0.11998402,-194.73860000
0.12254402,-203.68050000
0.12510402,-203.68050000
0.12766402,-203.68050000
0.13022402,-208.15150000
0.13278402,-208.15150000
0.13534402,-212.62240000
0.13790402,-212.62240000
0.14046402,-212.62240000
0.14302402,-212.62240000
0.14558402,-221.56440000
0.14814402,-221.56440000
0.15070402,-221.56440000
0.15326402,-221.56440000
0.15582402,-226.03530000
0.15838402,-226.03530000
0.16094402,-226.03530000
0.16350402,-230.50630000
0.16606402,-230.50630000
0.16862402,-230.50630000
0.17118402,-230.50630000
0.17374402,-230.50630000
0.17630402,-239.44820000
0.17886402,-239.44820000
0.18142402,-239.44820000
0.18398402,-239.44820000
0.18654402,-239.44820000
0.18910402,-239.44820000
0.19166402,-243.91920000
0.19422402,-243.91920000
0.19678402,-243.91920000
0.19934402,-243.91920000
0.20190402,-243.91920000
0.20446402,-243.91920000
0.20702402,-248.40540000
0.20958402,-248.40540000
0.21214402,-248.40540000
0.21470402,-248.40540000
0.21726402,-248.40540000
0.21982402,-248.40540000
0.22238402,-248.40540000
0.22494402,-248.40540000
0.22750402,-248.40540000
0.23006402,-248.40540000
0.23262402,-252.87640000
0.23518402,-252.87640000
0.23774402,-252.87640000
0.24030402,-252.87640000
0.24286402,-252.87640000
0.24542402,-252.87640000
0.24798402,-252.87640000
0.25054402,-252.87640000
0.25310402,-257.34730000
0.25566402,-252.87640000
0.25822402,-252.87640000
0.26078402,-257.34730000
0.26334402,-257.34730000
0.26590402,-257.34730000
0.26846402,-257.34730000
0.27102402,-257.34730000
0.27358402,-257.34730000
0.27614402,-257.34730000
0.27870402,-257.34730000
0.28126402,-257.34730000
0.28382402,-257.34730000
0.28638402,-257.34730000
0.28894402,-257.34730000
0.29150402,-257.34730000
0.29406402,-257.34730000
0.29662402,-252.87640000
0.29918402,-257.34730000
0.30174402,-252.87640000
0.30430402,-257.34730000
0.30686402,-252.87640000
0.30942402,-252.87640000
0.31198402,-252.87640000
0.31454402,-252.87640000
0.31710402,-252.87640000
0.31966402,-248.40540000
0.32222402,-252.87640000
0.32478402,-252.87640000
0.32734402,-252.87640000
0.32990402,-248.40540000
0.33246402,-248.40540000
0.33502402,-248.40540000
0.33758402,-248.40540000
0.34014402,-248.40540000
0.34270402,-248.40540000
0.34526402,-248.40540000
0.34782402,-248.40540000
0.35038402,-248.40540000
0.35294402,-248.40540000
0.35550402,-248.40540000
0.35806402,-248.40540000
0.36062402,-248.40540000
0.36318401,-248.40540000
0.36574401,-243.91920000
0.36830401,-248.40540000
0.37086401,-243.91920000
0.37342401,-243.91920000
0.37598401,-248.40540000
0.37854401,-243.91920000
0.38110401,-243.91920000
0.38366401,-239.44820000
0.38622401,-243.91920000
0.38878401,-243.91920000
0.39134401,-239.44820000
0.39390401,-239.44820000
0.39646401,-239.44820000
0.39902401,-239.44820000
0.40158401,-239.44820000
0.40414401,-239.44820000
0.40670401,-239.44820000
0.40926401,-239.44820000
0.41182401,-239.44820000
0.41438401,-234.97720000
0.41694401,-234.97720000
0.41950401,-234.97720000
0.42206401,-230.50630000
0.42462401,-230.50630000
0.42718401,-234.97720000
0.42974401,-230.50630000
0.43230401,-230.50630000
0.43486401,-230.50630000
0.43742401,-230.50630000
0.43998401,-230.50630000
0.44254401,-230.50630000
0.44510401,-230.50630000
0.44766401,-226.03530000
0.45022401,-230.50630000
0.45278401,-226.03530000
0.45534401,-226.03530000
0.45790401,-226.03530000
0.46046401,-226.03530000
0.46302401,-226.03530000
0.46558401,-226.03530000
0.46814401,-221.56440000
0.47070401,-221.56440000
0.47326401,-221.56440000
0.47582401,-221.56440000
0.47838401,-221.56440000
0.48094401,-221.56440000
0.48350401,-221.56440000
0.48606401,-221.56440000
0.48862401,-221.56440000
0.49118401,-212.62240000
0.49374401,-217.09340000
0.49630401,-217.09340000
0.49886401,-217.09340000
0.50142401,-212.62240000
0.50398401,-212.62240000
0.50654401,-212.62240000
0.50910401,-212.62240000
0.51166401,-212.62240000
0.51422401,-212.62240000
0.51678401,-212.62240000
0.51934401,-212.62240000
0.52190401,-208.15150000
0.52446401,-208.15150000
0.52702401,-208.15150000
0.52958401,-208.15150000
0.53214401,-203.68050000
0.53470401,-208.15150000
0.53726401,-203.68050000
0.53982401,-203.68050000
0.54238401,-203.68050000
0.54494401,-203.68050000
0.54750401,-203.68050000
0.55006401,-203.68050000
0.55262401,-203.68050000
0.55518401,-199.20960000
0.55774401,-203.68050000
0.56030401,-194.73860000
0.56286401,-203.68050000
0.56542401,-199.20960000
0.56798401,-194.73860000
0.57054401,-194.73860000
0.57310401,-194.73860000
0.57566401,-194.73860000
0.57822401,-194.73860000
0.58078401,-194.73860000
0.58334401,-194.73860000
0.58590401,-194.73860000
0.58846401,-194.73860000
0.59102401,-194.73860000
0.59358401,-194.73860000
0.59614401,-190.26760000
0.59870401,-190.26760000
0.60126401,-190.26760000
0.60382401,-190.26760000
0.60638401,-190.26760000
0.60894401,-185.78140000
0.61150401,-185.78140000
0.61406401,-185.78140000
0.61662401,-185.78140000
0.61918401,-185.78140000
0.62174401,-185.78140000
0.62430401,-185.78140000
0.62686401,-185.78140000
0.62942401,-185.78140000
0.63198401,-181.31050000
0.63454401,-181.31050000
0.63710401,-181.31050000
0.63966401,-176.83950000
0.64222401,-176.83950000
0.64478401,-181.31050000
0.64734401,-176.83950000
0.64990401,-176.83950000
0.65246401,-176.83950000
0.65502401,-176.83950000
0.65758401,-176.83950000
0.66014401,-176.83950000
0.66270401,-176.83950000
0.66526401,-172.36850000
0.66782401,-176.83950000
0.67038401,-172.36850000
0.67294401,-172.36850000
0.67550401,-172.36850000
0.67806401,-172.36850000
0.68062401,-172.36850000
0.68318401,-172.36850000
0.68574401,-167.89760000
0.68830401,-167.89760000
0.69086401,-167.89760000
0.69342401,-167.89760000
0.69598401,-167.89760000
0.69854401,-167.89760000
0.70110401,-167.89760000
0.70366401,-167.89760000
0.70622401,-167.89760000
0.70878401,-167.89760000
0.71134401,-167.89760000
0.71390401,-163.42660000
0.71646401,-163.42660000
0.71902401,-163.42660000
0.72158401,-158.95570000
0.72414401,-163.42660000
0.72670401,-158.95570000
0.72926401,-158.95570000
0.73182401,-158.95570000
0.73438401,-158.95570000
0.73694401,-158.95570000
0.73950401,-158.95570000
0.74206401,-158.95570000
0.74462401,-158.95570000
0.74718401,-158.95570000
0.74974401,-158.95570000
0.75230401,-158.95570000
0.75486401,-158.95570000
0.75742401,-154.48470000
0.75998401,-154.48470000
0.76254401,-154.48470000
0.76510401,-154.48470000
0.76766401,-154.48470000
0.77022401,-154.48470000
0.77278401,-150.01370000
0.77534401,-150.01370000
0.77790401,-154.48470000
0.78046401,-150.01370000
0.78302401,-150.01370000
0.78558401,-150.01370000
0.78814401,-150.01370000
0.79070401,-150.01370000
0.79326401,-150.01370000
0.79582401,-150.01370000
0.79838401,-150.01370000
0.80094401,-150.01370000
0.80350401,-145.54280000
0.80606401,-145.54280000
0.80862401,-150.01370000
0.81118401,-145.54280000
0.81374401,-141.07180000
0.81630401,-145.54280000
0.81886401,-141.07180000
0.82142401,-141.07180000
0.82398401,-141.07180000
0.82654401,-141.07180000
0.82910401,-141.07180000
0.83166401,-141.07180000
0.83422401,-141.07180000
0.83678401,-141.07180000
0.83934401,-141.07180000
0.84190401,-141.07180000
0.84446401,-141.07180000
0.84702401,-136.60080000
0.84958401,-136.60080000
0.85214401,-141.07180000
0.85470401,-136.60080000
0.85726401,-136.60080000
0.85982401,-136.60080000
0.86238401,-136.60080000
0.86494401,-136.60080000
0.86750401,-136.60080000
0.87006401,-132.12990000
0.87262401,-132.12990000
0.87518401,-132.12990000
0.87774401,-132.12990000
0.88030401,-132.12990000
0.88286401,-132.12990000
0.88542401,-132.12990000
0.88798401,-132.12990000
0.89054401,-132.12990000
0.89310401,-132.12990000
0.89566401,-132.12990000
0.89822401,-127.64370000
0.90078401,-132.12990000
0.90334401,-132.12990000
0.90590401,-127.64370000
0.90846401,-132.12990000
0.91102401,-127.64370000
0.91358401,-123.17270000
0.91614401,-123.17270000
0.91870401,-123.17270000
0.92126401,-127.64370000
0.92382401,-123.17270000
0.92638401,-123.17270000
0.92894401,-123.17270000
0.93150401,-123.17270000
0.93406401,-123.17270000
0.93662401,-123.17270000
0.93918401,-123.17270000
0.94174401,-123.17270000
0.94430401,-123.17270000
0.94686401,-123.17270000
0.94942401,-123.17270000
0.95198401,-123.17270000
0.95454401,-123.17270000
0.95710401,-123.17270000
0.95966401,-123.17270000
0.96222401,-118.70170000
0.96478401,-123.17270000
0.96734401,-118.70170000
0.96990401,-118.70170000
0.97246401,-123.17270000
0.97502401,-118.70170000
0.97758401,-118.70170000
0.98014401,-118.70170000
0.98270401,-118.70170000
0.98526401,-118.70170000
0.98782401,-118.70170000
0.99038401,-118.70170000
0.99294401,-114.23080000
0.99550401,-114.23080000
0.99806401,-118.70170000
1.00062401,-118.70170000
1.00318401,-118.70170000
1.00574401,-114.23080000
1.00830401,-114.23080000
1.01086401,-114.23080000
1.01342401,-114.23080000
1.01598401,-114.23080000
1.01854401,-114.23080000
1.02110401,-114.23080000
1.02366401,-114.23080000
1.02622401,-114.23080000
1.02878401,-114.23080000
1.03134401,-114.23080000
1.03390401,-114.23080000
1.03646401,-114.23080000
1.03902401,-114.23080000
1.04158401,-114.23080000
1.04414401,-114.23080000
1.04670401,-114.23080000
1.04926401,-114.23080000
1.05182401,-109.75980000
1.05438401,-114.23080000
1.05694401,-109.75980000
1.05950401,-109.75980000
1.06206401,-109.75980000
1.06462401,-109.75980000
1.06718401,-109.75980000
1.06974401,-109.75980000
1.07230401,-109.75980000
1.07486401,-109.75980000
1.07742401,-109.75980000
1.07998401,-105.28880000
1.08254401,-105.28880000
1.08510401,-109.75980000
1.08766401,-105.28880000
1.09022401,-105.28880000
1.09278401,-109.75980000
1.09534401,-105.28880000
1.09790401,-105.28880000
1.10046401,-105.28880000
1.10302401,-105.28880000
1.10558401,-105.28880000
1.10814401,-105.28880000
1.11070401,-105.28880000
1.11326401,-105.28880000
1.11582401,-105.28880000
1.11838401,-105.28880000
1.12094401,-105.28880000
1.12350401,-105.28880000
1.12606401,-105.28880000
1.12862401,-105.28880000
1.13118401,-105.28880000
1.13374401,-105.28880000
1.13630401,-105.28880000
1.13886401,-105.28880000
1.14142401,-105.28880000
1.14398401,-105.28880000
1.14654401,-105.28880000
1.14910401,-105.28880000
1.15166401,-100.81790000
1.15422401,-105.28880000
1.15678401,-100.81790000
1.15934401,-100.81790000
1.16190401,-100.81790000
1.16446401,-100.81790000
1.16702401,-100.81790000
1.16958401,-100.81790000
1.17214401,-100.81790000
1.17470401,-100.81790000
1.17726401,-100.81790000
1.17982401,-100.81790000
1.18238401,-100.81790000
1.18494401,-100.81790000
1.18750401,-96.34693000
1.19006401,-100.81790000
1.19262401,-100.81790000
1.19518401,-100.81790000
1.19774401,-96.34693000
1.20030401,-96.34693000
1.20286401,-96.34693000
1.20542401,-100.81790000
1.20798401,-96.34693000
1.21054401,-96.34693000
1.21310401,-96.34693000
1.21566401,-96.34693000
1.21822401,-96.34693000
1.22078401,-96.34693000
1.22334401,-96.34693000
1.22590401,-96.34693000
1.22846401,-96.34693000
1.23102401,-96.34693000
1.23358401,-96.34693000
1.23614401,-96.34693000
1.23870401,-96.34693000
1.24126401,-96.34693000
1.24382401,-96.34693000
1.24638401,-96.34693000
1.24894401,-96.34693000
1.25150401,-96.34693000
1.25406401,-96.34693000
1.25662401,-96.34693000
1.25918401,-96.34693000
1.26174401,-96.34693000
1.26430401,-96.34693000
1.26686401,-91.87596000
1.26942401,-96.34693000
1.27198401,-91.87596000
1.27454401,-96.34693000
1.27710401,-96.34693000
1.27966401,-96.34693000
1.28222401,-91.87596000
1.28478401,-91.87596000
1.28734401,-96.34693000
1.28990401,-91.87596000
1.29246401,-91.87596000
1.29502401,-91.87596000
1.29758401,-91.87596000
1.30014401,-91.87596000
1.30270401,-91.87596000
1.30526401,-91.87596000
1.30782401,-87.40501000
1.31038401,-91.87596000
1.31294401,-91.87596000
1.31550401,-91.87596000
1.31806401,-91.87596000
1.32062401,-91.87596000
1.32318401,-91.87596000
1.32574401,-87.40501000
1.32830401,-91.87596000
1.33086401,-91.87596000
1.33342401,-87.40501000
1.33598401,-87.40501000
1.33854401,-87.40501000
1.34110401,-87.40501000
1.34366401,-87.40501000
1.34622401,-87.40501000
1.34878401,-87.40501000
1.35134401,-87.40501000
1.35390401,-87.40501000
1.35646401,-87.40501000
1.35902401,-87.40501000
1.36158401,-87.40501000
1.36414401,-87.40501000
1.36670401,-87.40501000
1.36926401,-87.40501000
1.37182401,-87.40501000
1.37438401,-87.40501000
1.37694401,-87.40501000
1.37950401,-87.40501000
1.38206401,-87.40501000
1.38462401,-87.40501000
1.38718401,-87.40501000
1.38974401,-87.40501000
1.39230401,-87.40501000
1.39486401,-87.40501000
1.39742401,-87.40501000
1.39998401,-87.40501000
1.40254401,-87.40501000
1.40510401,-87.40501000
1.40766401,-87.40501000
1.41022401,-87.40501000
1.41278401,-87.40501000
1.41534401,-87.40501000
1.41790401,-87.40501000
1.42046401,-87.40501000
1.42302401,-87.40501000
1.42558401,-87.40501000
1.42814401,-87.40501000
1.43070401,-87.40501000
1.43326401,-87.40501000
1.43582401,-87.40501000
1.43838401,-87.40501000
1.44094401,-82.93404000
1.44350401,-82.93404000
1.44606401,-82.93404000
1.44862401,-82.93404000
1.45118401,-87.40501000
1.45374401,-82.93404000
1.45630401,-82.93404000
1.45886401,-82.93404000
1.46142401,-82.93404000
1.46398401,-82.93404000
1.46654401,-82.93404000
1.46910401,-82.93404000
1.47166401,-82.93404000
1.47422401,-82.93404000
1.47678401,-82.93404000
1.47934401,-82.93404000
1.48190401,-82.93404000
1.48446401,-82.93404000
1.48702401,-82.93404000
1.48958401,-82.93404000
1.49214401,-82.93404000
1.49470401,-82.93404000
1.49726401,-82.93404000
1.49982401,-82.93404000
1.50238401,-82.93404000
1.50494401,-82.93404000
1.50750401,-82.93404000
1.51006401,-82.93404000
1.51262401,-82.93404000
1.51518401,-78.46308000
1.51774401,-82.93404000
1.52030401,-78.46308000
1.52286401,-82.93404000
1.52542401,-82.93404000
1.52798401,-82.93404000
1.53054401,-78.46308000
1.53310401,-78.46308000
1.53566401,-78.46308000
1.53822401,-82.93404000
1.54078401,-82.93404000
1.54334401,-78.46308000
1.54590401,-78.46308000
1.54846401,-78.46308000
1.55102401,-82.93404000
1.55358401,-82.93404000
1.55614401,-78.46308000
1.55870401,-78.46308000
1.56126401,-82.93404000
1.56382401,-82.93404000
1.56638401,-78.46308000
1.56894401,-78.46308000
1.57150401,-78.46308000
1.57406401,-78.46308000
1.57662401,-78.46308000
1.57918401,-78.46308000
1.58174401,-78.46308000
1.58430401,-78.46308000
1.58686401,-78.46308000
1.58942401,-78.46308000
1.59198401,-78.46308000
1.59454401,-78.46308000
1.59710401,-78.46308000
1.59966401,-78.46308000
1.60222401,-78.46308000
1.60478401,-78.46308000
1.60734401,-78.46308000
1.60990401,-78.46308000
1.61246401,-78.46308000
1.61502401,-78.46308000
1.61758401,-78.46308000
1.62014401,-78.46308000
1.62270401,-78.46308000
1.62526401,-78.46308000
1.62782401,-78.46308000
1.63038401,-78.46308000
1.63294401,-78.46308000
1.63550401,-78.46308000
1.63806401,-78.46308000
1.64062401,-78.46308000
1.64318401,-78.46308000
1.64574401,-78.46308000
1.64830401,-78.46308000
1.65086401,-78.46308000
1.65342401,-78.46308000
1.65598401,-78.46308000
1.65854401,-78.46308000
1.66110401,-78.46308000
1.66366401,-78.46308000
1.66622401,-78.46308000
1.66878401,-78.46308000
1.67134401,-78.46308000
1.67390401,-78.46308000
1.67646401,-78.46308000
1.67902401,-78.46308000
1.68158401,-73.99212000
1.68414401,-78.46308000
1.68670401,-78.46308000
1.68926401,-78.46308000
1.69182401,-73.99212000
1.69438401,-78.46308000
1.69694401,-78.46308000
1.69950401,-73.99212000
1.70206401,-73.99212000
1.70462401,-78.46308000
1.70718401,-73.99212000
1.70974401,-73.99212000
1.71230401,-73.99212000
1.71486401,-73.99212000
1.71742401,-73.99212000
1.71998401,-73.99212000
1.72254401,-73.99212000
1.72510401,-73.99212000
1.72766401,-73.99212000
1.73022401,-78.46308000
1.73278401,-73.99212000
1.73534401,-73.99212000
1.73790401,-73.99212000
1.74046401,-73.99212000
1.74302401,-73.99212000
1.74558401,-78.46308000
1.74814401,-73.99212000
1.75070401,-73.99212000
1.75326401,-73.99212000
1.75582401,-73.99212000
1.75838401,-73.99212000
1.76094401,-73.99212000
1.76350401,-73.99212000
1.76606401,-73.99212000
1.76862401,-73.99212000
1.77118401,-73.99212000
1.77374401,-73.99212000
1.77630401,-69.50591000
1.77886401,-69.50591000
1.78142401,-73.99212000
1.78398401,-73.99212000
1.78654401,-73.99212000
1.78910401,-73.99212000
1.79166401,-73.99212000
1.79422401,-69.50591000
1.79678401,-69.50591000
1.79934401,-73.99212000
1.80190401,-69.50591000
1.80446401,-69.50591000
1.80702401,-69.50591000
1.80958401,-69.50591000
1.81214401,-69.50591000
1.81470401,-69.50591000
1.81726401,-73.99212000
1.81982401,-69.50591000
1.82238401,-69.50591000
1.82494401,-69.50591000
1.82750401,-73.99212000
1.83006401,-69.50591000
1.83262401,-69.50591000
1.83518401,-69.50591000
1.83774401,-69.50591000
1.84030401,-69.50591000
1.84286401,-69.50591000
1.84542401,-69.50591000
1.84798401,-69.50591000
1.85054401,-69.50591000
1.85310401,-69.50591000
1.85566401,-73.99212000
1.85822401,-73.99212000
1.86078401,-69.50591000
1.86334401,-69.50591000
1.86590401,-69.50591000
1.86846401,-69.50591000
1.87102401,-69.50591000
1.87358401,-69.50591000
1.87614401,-69.50591000
1.87870401,-69.50591000
1.88126401,-73.99212000
1.88382401,-69.50591000
1.88638401,-69.50591000
1.88894401,-69.50591000
1.89150401,-69.50591000
1.89406401,-69.50591000
1.89662401,-69.50591000
1.89918401,-69.50591000
1.90174401,-69.50591000
1.90430401,-69.50591000
1.90686401,-69.50591000
1.90942401,-69.50591000
1.91198401,-69.50591000
1.91454401,-69.50591000
1.91710401,-69.50591000
1.91966401,-69.50591000
1.92222401,-69.50591000
1.92478401,-69.50591000
1.92734401,-69.50591000
1.92990401,-69.50591000
1.93246401,-69.50591000
1.93502401,-69.50591000
1.93758401,-69.50591000
1.94014401,-69.50591000
1.94270401,-69.50591000
1.94526401,-69.50591000
1.94782401,-69.50591000
1.95038401,-69.50591000
1.95294401,-69.50591000
1.95550401,-69.50591000
1.95806401,-69.50591000
1.96062401,-69.50591000
1.96318401,-69.50591000
1.96574401,-69.50591000
1.96830401,-69.50591000
1.97086401,-69.50591000
1.97342401,-69.50591000
1.97598401,-69.50591000
1.97854401,-69.50591000
1.98110401,-69.50591000
1.98366401,-69.50591000
1.98622401,-69.50591000
1.98878401,-69.50591000
1.99134401,-69.50591000
1.99390401,-69.50591000
1.99646401,-69.50591000
1.99902401,-69.50591000
2.00158401,-69.50591000
2.00414401,-69.50591000
2.00670400,-69.50591000
2.00926400,-69.50591000
2.01182400,-69.50591000
2.01438400,-69.50591000
2.01694400,-69.50591000
2.01950400,-69.50591000
2.02206400,-69.50591000
2.02462400,-69.50591000
2.02718400,-69.50591000
2.02974400,-69.50591000
2.03230400,-69.50591000
2.03486400,-69.50591000
2.03742400,-69.50591000
2.03998400,-69.50591000
2.04254400,-69.50591000
2.04510400,-69.50591000
2.04766400,-69.50591000
2.05022400,-69.50591000
2.05278400,-69.50591000
2.05534400,-69.50591000
2.05790400,-69.50591000
2.06046400,-69.50591000
2.06302400,-69.50591000
2.06558400,-69.50591000
2.06814400,-69.50591000
2.07070400,-69.50591000
2.07326400,-69.50591000
2.07582400,-69.50591000
2.07838400,-69.50591000
2.08094400,-69.50591000
2.08350400,-69.50591000
2.08606400,-69.50591000
2.08862400,-69.50591000
2.09118400,-69.50591000
2.09374400,-69.50591000
2.09630400,-69.50591000
2.09886400,-69.50591000
2.10142400,-69.50591000
2.10398400,-69.50591000
2.10654400,-69.50591000
2.10910400,-69.50591000
2.11166400,-69.50591000
2.11422400,-69.50591000
2.11678400,-69.50591000
2.11934400,-69.50591000
2.12190400,-69.50591000
2.12446400,-69.50591000
2.12702400,-69.50591000
2.12958400,-69.50591000
2.13214400,-69.50591000
2.13470400,-69.50591000
2.13726400,-69.50591000
2.13982400,-69.50591000
2.14238400,-69.50591000
2.14494400,-69.50591000
2.14750400,-69.50591000
2.15006400,-69.50591000
2.15262400,-73.99212000
2.15518400,-69.50591000
2.15774400,-73.99212000
2.16030400,-73.99212000
2.16286400,-73.99212000
2.16542400,-73.99212000
2.16798400,-73.99212000
2.17054400,-73.99212000
2.17310400,-73.99212000
2.17566400,-73.99212000
2.17822400,-73.99212000
2.18078400,-78.46308000
2.18334400,-73.99212000
2.18590400,-78.46308000
2.18846400,-78.46308000
2.19102400,-78.46308000
2.19358400,-73.99212000
2.19614400,-78.46308000
2.19870400,-78.46308000
2.20126400,-78.46308000
2.20382400,-78.46308000
2.20638400,-78.46308000
2.20894400,-78.46308000
2.21150400,-78.46308000
2.21406400,-78.46308000
2.21662400,-82.93404000
2.21918400,-82.93404000
2.22174400,-78.46308000
2.22430400,-82.93404000
2.22686400,-82.93404000
2.22942400,-82.93404000
2.23198400,-82.93404000
2.23454400,-82.93404000
2.23710400,-82.93404000
2.23966400,-82.93404000
2.24222400,-82.93404000
2.24478400,-87.40501000
2.24734400,-87.40501000
2.24990400,-87.40501000
2.25246400,-87.40501000
2.25502400,-87.40501000
2.25758400,-87.40501000
2.26014400,-87.40501000
2.26270400,-87.40501000
2.26526400,-87.40501000
2.26782400,-87.40501000
2.27038400,-87.40501000
2.27294400,-91.87596000
2.27550400,-91.87596000
2.27806400,-91.87596000
2.28062400,-87.40501000
2.28318400,-96.34693000
2.28574400,-91.87596000
2.28830400,-96.34693000
2.29086400,-96.34693000
2.29342400,-96.34693000
2.29598400,-96.34693000
2.29854400,-96.34693000
2.30110400,-96.34693000
2.30366400,-96.34693000
2.30622400,-96.34693000
2.30878400,-96.34693000
2.31134400,-100.81790000
2.31390400,-100.81790000
2.31646400,-100.81790000
2.31902400,-100.81790000
2.32158400,-100.81790000
2.32414400,-100.81790000
2.32670400,-100.81790000
2.32926400,-100.81790000
2.33182400,-100.81790000
2.33438400,-100.81790000
2.33694400,-105.28880000
2.33950400,-105.28880000
2.34206400,-105.28880000
2.34462400,-105.28880000
2.34718400,-105.28880000
2.34974400,-105.28880000
2.35230400,-105.28880000
2.35486400,-105.28880000
2.35742400,-105.28880000
2.35998400,-105.28880000
2.36254400,-105.28880000
2.36510400,-105.28880000
2.36766400,-105.28880000
2.37022400,-105.28880000
2.37278400,-105.28880000
2.37534400,-109.75980000
2.37790400,-109.75980000
2.38046400,-109.75980000
2.38302400,-105.28880000
2.38558400,-109.75980000
2.38814400,-109.75980000
2.39070400,-114.23080000
2.39326400,-109.75980000
2.39582400,-109.75980000
2.39838400,-109.75980000
2.40094400,-114.23080000
2.40350400,-114.23080000
2.40606400,-114.23080000
2.40862400,-114.23080000
2.41118400,-114.23080000
2.41374400,-114.23080000
2.41630400,-114.23080000
2.41886400,-114.23080000
2.42142400,-114.23080000
2.42398400,-114.23080000
2.42654400,-114.23080000
2.42910400,-114.23080000
2.43166400,-114.23080000
2.43422400,-114.23080000
2.43678400,-114.23080000
2.43934400,-114.23080000
2.44190400,-114.23080000
2.44446400,-114.23080000
2.44702400,-114.23080000
2.44958400,-114.23080000
2.45214400,-114.23080000
2.45470400,-118.70170000
2.45726400,-114.23080000
2.45982400,-114.23080000
2.46238400,-114.23080000
2.46494400,-114.23080000
2.46750400,-114.23080000
2.47006400,-114.23080000
2.47262400,-114.23080000
2.47518400,-114.23080000
2.47774400,-114.23080000
2.48030400,-114.23080000
2.48286400,-114.23080000
2.48542400,-114.23080000
2.48798400,-114.23080000
2.49054400,-114.23080000
2.49310400,-114.23080000
2.49566400,-114.23080000
2.49822400,-114.23080000
2.50078400,-114.23080000
2.50334400,-114.23080000
2.50590400,-114.23080000
2.50846400,-114.23080000
2.51102400,-114.23080000
2.51358400,-114.23080000
2.51614400,-114.23080000
2.51870400,-114.23080000
2.52126400,-114.23080000
2.52382400,-114.23080000
2.52638400,-114.23080000
2.52894400,-114.23080000
2.53150400,-114.23080000
2.53406400,-114.23080000
2.53662400,-114.23080000
2.53918400,-114.23080000
2.54174400,-114.23080000
2.54430400,-114.23080000
2.54686400,-114.23080000
2.54942400,-114.23080000
2.55198400,-114.23080000
2.55454400,-114.23080000
2.55710400,-114.23080000
2.55966400,-114.23080000
2.56222400,-114.23080000
2.56478400,-109.75980000
2.56734400,-109.75980000
2.56990400,-109.75980000
2.57246400,-109.75980000
2.57502400,-109.75980000
2.57758400,-109.75980000
2.58014400,-109.75980000
2.58270400,-109.75980000
2.58526400,-105.28880000
2.58782400,-105.28880000
2.59038400,-105.28880000
2.59294400,-109.75980000
2.59550400,-105.28880000
2.59806400,-109.75980000
2.60062400,-105.28880000
2.60318400,-105.28880000
2.60574400,-105.28880000
2.60830400,-105.28880000
2.61086400,-105.28880000
2.61342400,-105.28880000
2.61598400,-105.28880000
2.61854400,-105.28880000
2.62110400,-105.28880000
2.62366400,-105.28880000
2.62622400,-105.28880000
2.62878400,-105.28880000
2.63134400,-105.28880000
2.63390400,-105.28880000
2.63646400,-105.28880000
2.63902400,-100.81790000
2.64158400,-105.28880000
2.64414400,-100.81790000
2.64670400,-100.81790000
2.64926400,-100.81790000
2.65182400,-100.81790000
2.65438400,-100.81790000
2.65694400,-100.81790000
2.65950400,-100.81790000
2.66206400,-100.81790000
2.66462400,-96.34693000
2.66718400,-100.81790000
2.66974400,-100.81790000
2.67230400,-96.34693000
2.67486400,-96.34693000
2.67742400,-96.34693000
2.67998400,-96.34693000
2.68254400,-96.34693000
2.68510400,-96.34693000
2.68766400,-96.34693000
2.69022400,-96.34693000
2.69278400,-96.34693000
2.69534400,-96.34693000
2.69790400,-96.34693000
2.70046400,-91.87596000
2.70302400,-91.87596000
2.70558400,-91.87596000
2.70814400,-87.40501000
2.71070400,-87.40501000
2.71326400,-87.40501000
2.71582400,-87.40501000
2.71838400,-87.40501000
2.72094400,-87.40501000
2.72350400,-87.40501000
2.72606400,-87.40501000
2.72862400,-82.93404000
2.73118400,-87.40501000
2.73374400,-82.93404000
2.73630400,-87.40501000
2.73886400,-82.93404000
2.74142400,-82.93404000
2.74398400,-78.46308000
2.74654400,-78.46308000
2.74910400,-78.46308000
2.75166400,-78.46308000
2.75422400,-78.46308000
2.75678400,-78.46308000
2.75934400,-73.99212000
2.76190400,-73.99212000
2.76446400,-69.50591000
2.76702400,-73.99212000
2.76958400,-69.50591000
2.77214400,-69.50591000
2.77470400,-69.50591000
2.77726400,-69.50591000
2.77982400,-69.50591000
2.78238400,-69.50591000
2.78494400,-65.03493000
2.78750400,-69.50591000
2.79006400,-65.03493000
2.79262400,-65.03493000
2.79518400,-60.56398000
2.79774400,-60.56398000
2.80030400,-60.56398000
2.80286400,-60.56398000
2.80542400,-56.09302000
2.80798400,-60.56398000
2.81054400,-56.09302000
2.81310400,-60.56398000
2.81566400,-56.09302000
2.81822400,-51.62206000
2.82078400,-51.62206000
2.82334400,-51.62206000
2.82590400,-51.62206000
2.82846400,-51.62206000
2.83102400,-51.62206000
2.83358400,-51.62206000
2.83614400,-47.15109000
2.83870400,-47.15109000
2.84126400,-42.68013000
2.84382400,-47.15109000
2.84638400,-42.68013000
2.84894400,-42.68013000
2.85150400,-42.68013000
2.85406400,-42.68013000
2.85662400,-42.68013000
2.85918400,-42.68013000
2.86174400,-42.68013000
2.86430400,-38.20917000
2.86686400,-42.68013000
2.86942400,-38.20917000
2.87198400,-38.20917000
2.87454400,-38.20917000
2.87710400,-33.73821000
2.87966400,-33.73821000
2.88222400,-33.73821000
2.88478400,-33.73821000
2.88734400,-33.73821000
2.88990400,-33.73821000
2.89246400,-33.73821000
2.89502400,-33.73821000
2.89758400,-33.73821000
2.90014400,-33.73821000
2.90270400,-33.73821000
2.90526400,-29.26725000
2.90782400,-33.73821000
2.91038400,-29.26725000
2.91294400,-29.26725000
2.91550400,-29.26725000
2.91806400,-29.26725000
2.92062400,-29.26725000
2.92318400,-24.79629000
2.92574400,-29.26725000
2.92830400,-29.26725000
2.93086400,-29.26725000
2.93342400,-29.26725000
2.93598400,-24.79629000
2.93854400,-24.79629000
2.94110400,-24.79629000
2.94366400,-24.79629000
2.94622400,-24.79629000
2.94878400,-24.79629000
2.95134400,-24.79629000
2.95390400,-24.79629000
2.95646400,-24.79629000
2.95902400,-24.79629000
2.96158400,-24.79629000
2.96414400,-24.79629000
2.96670400,-24.79629000
2.96926400,-24.79629000
2.97182400,-24.79629000
2.97438400,-24.79629000
2.97694400,-24.79629000
2.97950400,-24.79629000
2.98206400,-24.79629000
2.98462400,-24.79629000
2.98718400,-20.32533000
2.98974400,-24.79629000
2.99230400,-20.32533000
2.99486400,-24.79629000
2.99742400,-24.79629000
2.99998400,-20.32533000
3.00254400,-20.32533000
3.00510400,-20.32533000
3.00766400,-20.32533000
3.01022400,-20.32533000
3.01278400,-20.32533000
3.01534400,-24.79629000
3.01790400,-20.32533000
3.02046400,-20.32533000
3.02302400,-20.32533000
3.02558400,-20.32533000
3.02814400,-20.32533000
3.03070400,-20.32533000
3.03326400,-20.32533000
3.03582400,-20.32533000
3.03838400,-20.32533000
3.04094400,-20.32533000
3.04350400,-20.32533000
3.04606400,-20.32533000
3.04862400,-20.32533000
3.05118400,-20.32533000
3.05374400,-20.32533000
3.05630400,-20.32533000
3.05886400,-20.32533000
3.06142400,-20.32533000
3.06398400,-20.32533000
3.06654400,-20.32533000
3.06910400,-20.32533000
3.07166400,-20.32533000
3.07422400,-20.32533000
3.07678400,-24.79629000
3.07934400,-20.32533000
3.08190400,-20.32533000
3.08446400,-20.32533000
3.08702400,-24.79629000
3.08958400,-20.32533000
3.09214400,-20.32533000
3.09470400,-24.79629000
3.09726400,-20.32533000
3.09982400,-20.32533000
3.10238400,-24.79629000
3.10494400,-24.79629000
3.10750400,-20.32533000
3.11006400,-20.32533000
3.11262400,-20.32533000
3.11518400,-24.79629000
3.11774400,-24.79629000
3.12030400,-24.79629000
3.12286400,-24.79629000
3.12542400,-24.79629000
3.12798400,-24.79629000
3.13054400,-24.79629000
3.13310400,-24.79629000
3.13566400,-24.79629000
3.13822400,-24.79629000
3.14078400,-24.79629000
3.14334400,-24.79629000
3.14590400,-24.79629000
3.14846400,-24.79629000
3.15102400,-24.79629000
3.15358400,-24.79629000
3.15614400,-24.79629000
3.15870400,-29.26725000
3.16126400,-24.79629000
3.16382400,-24.79629000
3.16638400,-24.79629000
3.16894400,-24.79629000
3.17150400,-29.26725000
3.17406400,-29.26725000
3.17662400,-29.26725000
3.17918400,-29.26725000
3.18174400,-29.26725000
3.18430400,-29.26725000
3.18686400,-29.26725000
3.18942400,-29.26725000
3.19198400,-29.26725000
3.19454400,-29.26725000
3.19710400,-29.26725000
3.19966400,-29.26725000
3.20222400,-29.26725000
3.20478400,-29.26725000
3.20734400,-29.26725000
3.20990400,-29.26725000
3.21246400,-33.73821000
3.21502400,-33.73821000
3.21758400,-33.73821000
3.22014400,-33.73821000
3.22270400,-33.73821000
3.22526400,-33.73821000
3.22782400,-33.73821000
3.23038400,-33.73821000
3.23294400,-33.73821000
3.23550400,-33.73821000
3.23806400,-33.73821000
3.24062400,-33.73821000
3.24318400,-33.73821000
3.24574400,-33.73821000
3.24830400,-33.73821000
3.25086400,-33.73821000
3.25342400,-33.73821000
3.25598400,-33.73821000
3.25854400,-33.73821000
3.26110400,-33.73821000
3.26366400,-33.73821000
3.26622400,-33.73821000
3.26878400,-33.73821000
3.27134400,-38.20917000
3.27390400,-38.20917000
3.27646400,-33.73821000
3.27902400,-33.73821000
3.28158400,-38.20917000
3.28414400,-38.20917000
3.28670400,-38.20917000
3.28926400,-38.20917000
3.29182400,-38.20917000
3.29438400,-38.20917000
3.29694400,-42.68013000
3.29950400,-42.68013000
3.30206400,-38.20917000
3.30462400,-42.68013000
3.30718400,-42.68013000
3.30974400,-38.20917000
3.31230400,-42.68013000
3.31486400,-42.68013000
3.31742400,-42.68013000
3.31998400,-42.68013000
3.32254400,-42.68013000
3.32510400,-42.68013000
3.32766400,-42.68013000
3.33022400,-47.15109000
3.33278400,-47.15109000
3.33534400,-42.68013000
3.33790400,-47.15109000
3.34046400,-47.15109000
3.34302400,-47.15109000
3.34558400,-47.15109000
3.34814400,-47.15109000
3.35070400,-47.15109000
3.35326400,-51.62206000
3.35582400,-47.15109000
3.35838400,-51.62206000
3.36094400,-51.62206000
3.36350400,-51.62206000
3.36606400,-51.62206000
3.36862400,-51.62206000
3.37118400,-51.62206000
3.37374400,-51.62206000
3.37630400,-51.62206000
3.37886400,-51.62206000
3.38142400,-51.62206000
3.38398400,-51.62206000
3.38654400,-51.62206000
3.38910400,-51.62206000
3.39166400,-51.62206000
3.39422400,-51.62206000
3.39678400,-56.09302000
3.39934400,-56.09302000
3.40190400,-56.09302000
3.40446400,-56.09302000
3.40702400,-56.09302000
3.40958400,-60.56398000
3.41214400,-60.56398000
3.41470400,-60.56398000
3.41726400,-56.09302000
3.41982400,-60.56398000
3.42238400,-60.56398000
3.42494400,-60.56398000
3.42750400,-60.56398000
3.43006400,-60.56398000
3.43262400,-60.56398000
3.43518400,-60.56398000
3.43774400,-60.56398000
3.44030400,-60.56398000
3.44286400,-60.56398000
3.44542400,-60.56398000
3.44798400,-60.56398000
3.45054400,-60.56398000
3.45310400,-65.03493000
3.45566400,-65.03493000
3.45822400,-60.56398000
3.46078400,-65.03493000
3.46334400,-65.03493000
3.46590400,-65.03493000
3.46846400,-65.03493000
3.47102400,-65.03493000
3.47358400,-65.03493000
3.47614400,-65.03493000
3.47870400,-65.03493000
3.48126400,-65.03493000
3.48382400,-65.03493000
3.48638400,-65.03493000
3.48894400,-65.03493000
3.49150400,-65.03493000
3.49406400,-60.56398000
3.49662400,-69.50591000
3.49918400,-65.03493000
3.50174400,-65.03493000
3.50430400,-65.03493000
3.50686400,-69.50591000
3.50942400,-69.50591000
3.51198400,-69.50591000
3.51454400,-69.50591000
3.51710400,-69.50591000
3.51966400,-69.50591000
3.52222400,-69.50591000
3.52478400,-69.50591000
3.52734400,-69.50591000
3.52990400,-69.50591000
3.53246400,-69.50591000
3.53502400,-69.50591000
3.53758400,-65.03493000
3.54014400,-69.50591000
3.54270400,-65.03493000
3.54526400,-69.50591000
3.54782400,-69.50591000
3.55038400,-69.50591000
3.55294400,-69.50591000
3.55550400,-69.50591000
3.55806400,-69.50591000
3.56062400,-69.50591000
3.56318400,-69.50591000
3.56574400,-69.50591000
3.56830400,-69.50591000
3.57086400,-69.50591000
3.57342400,-69.50591000
3.57598400,-69.50591000
3.57854400,-69.50591000
3.58110400,-69.50591000
3.58366400,-69.50591000
3.58622400,-69.50591000
3.58878400,-69.50591000
3.59134400,-69.50591000
3.59390400,-69.50591000
3.59646400,-69.50591000
3.59902400,-69.50591000
3.60158400,-69.50591000
3.60414400,-69.50591000
3.60670400,-69.50591000
3.60926400,-69.50591000
3.61182400,-69.50591000
3.61438400,-69.50591000
3.61694400,-69.50591000
3.61950400,-69.50591000
3.62206400,-69.50591000
3.62462400,-69.50591000
3.62718400,-69.50591000
3.62974400,-69.50591000
3.63230400,-69.50591000
3.63486400,-69.50591000
3.63742400,-69.50591000
3.63998400,-69.50591000
3.64254400,-69.50591000
3.64510400,-69.50591000
3.64766400,-69.50591000
3.65022400,-69.50591000
3.65278399,-69.50591000
3.65534399,-69.50591000
3.65790399,-69.50591000
3.66046399,-69.50591000
3.66302399,-69.50591000
3.66558399,-69.50591000
3.66814399,-69.50591000
3.67070399,-69.50591000
3.67326399,-69.50591000
3.67582399,-69.50591000
3.67838399,-69.50591000
3.68094399,-69.50591000
3.68350399,-69.50591000
3.68606399,-69.50591000
3.68862399,-69.50591000
3.69118399,-69.50591000
3.69374399,-69.50591000
3.69630399,-69.50591000
3.69886399,-69.50591000
3.70142399,-69.50591000
3.70398399,-69.50591000
3.70654399,-69.50591000
3.70910399,-69.50591000
3.71166399,-69.50591000
3.71422399,-69.50591000
3.71678399,-69.50591000
3.71934399,-69.50591000
3.72190399,-69.50591000
3.72446399,-69.50591000
3.72702399,-69.50591000
3.72958399,-69.50591000
3.73214399,-69.50591000
3.73470399,-69.50591000
3.73726399,-69.50591000
3.73982399,-69.50591000
3.74238399,-73.99212000
3.74494399,-69.50591000
3.74750399,-69.50591000
3.75006399,-73.99212000
3.75262399,-69.50591000
3.75518399,-69.50591000
3.75774399,-69.50591000
3.76030399,-69.50591000
3.76286399,-73.99212000
3.76542399,-69.50591000
3.76798399,-73.99212000
3.77054399,-69.50591000
3.77310399,-69.50591000
3.77566399,-69.50591000
3.77822399,-73.99212000
3.78078399,-69.50591000
3.78334399,-69.50591000
3.78590399,-73.99212000
3.78846399,-69.50591000
3.79102399,-73.99212000
3.79358399,-73.99212000
3.79614399,-73.99212000
3.79870399,-69.50591000
3.80126399,-73.99212000
3.80382399,-69.50591000
3.80638399,-73.99212000
3.80894399,-73.99212000
3.81150399,-69.50591000
3.81406399,-73.99212000
3.81662399,-73.99212000
3.81918399,-73.99212000
3.82174399,-73.99212000
3.82430399,-69.50591000
3.82686399,-69.50591000
3.82942399,-73.99212000
3.83198399,-69.50591000
3.83454399,-73.99212000
3.83710399,-69.50591000
3.83966399,-69.50591000
3.84222399,-73.99212000
3.84478399,-69.50591000
3.84734399,-69.50591000
3.84990399,-69.50591000
3.85246399,-69.50591000
3.85502399,-69.50591000
3.85758399,-69.50591000
3.86014399,-69.50591000
3.86270399,-69.50591000
3.86526399,-73.99212000
3.86782399,-69.50591000
3.87038399,-69.50591000
3.87294399,-69.50591000
3.87550399,-69.50591000
3.87806399,-69.50591000
3.88062399,-69.50591000
3.88318399,-73.99212000
3.88574399,-69.50591000
3.88830399,-69.50591000
3.89086399,-69.50591000
3.89342399,-69.50591000
3.89598399,-69.50591000
3.89854399,-69.50591000
3.90110399,-69.50591000
3.90366399,-69.50591000
3.90622399,-69.50591000
3.90878399,-69.50591000
3.91134399,-69.50591000
3.91390399,-69.50591000
3.91646399,-69.50591000
3.91902399,-69.50591000
3.92158399,-69.50591000
3.92414399,-69.50591000
3.92670399,-69.50591000
3.92926399,-69.50591000
3.93182399,-69.50591000
3.93438399,-69.50591000
3.93694399,-69.50591000
3.93950399,-69.50591000
3.94206399,-69.50591000
3.94462399,-69.50591000
3.94718399,-69.50591000
3.94974399,-69.50591000
3.95230399,-69.50591000
3.95486399,-69.50591000
3.95742399,-69.50591000
3.95998399,-69.50591000
3.96254399,-69.50591000
3.96510399,-69.50591000
3.96766399,-69.50591000
3.97022399,-69.50591000
3.97278399,-69.50591000
3.97534399,-69.50591000
3.97790399,-69.50591000
3.98046399,-69.50591000
3.98302399,-69.50591000
3.98558399,-69.50591000
3.98814399,-69.50591000
3.99070399,-69.50591000
3.99326399,-69.50591000
3.99582399,-69.50591000
3.99838399,-69.50591000
4.00094399,-69.50591000
4.00350399,-69.50591000
4.00606399,-69.50591000
4.00862399,-69.50591000
4.01118399,-69.50591000
4.01374399,-69.50591000
4.01630399,-69.50591000
4.01886399,-69.50591000
4.02142399,-69.50591000
4.02398399,-69.50591000
4.02654399,-69.50591000
4.02910399,-69.50591000
4.03166399,-69.50591000
4.03422399,-69.50591000
4.03678399,-69.50591000
4.03934399,-69.50591000
4.04190399,-69.50591000
4.04446399,-69.50591000
4.04702399,-69.50591000
4.04958399,-65.03493000
4.05214399,-69.50591000
4.05470399,-69.50591000
4.05726399,-69.50591000
4.05982399,-65.03493000
4.06238399,-69.50591000
4.06494399,-69.50591000
4.06750399,-69.50591000
4.07006399,-69.50591000
4.07262399,-69.50591000
4.07518399,-65.03493000
4.07774399,-69.50591000
4.08030399,-69.50591000
4.08286399,-65.03493000
4.08542399,-69.50591000
4.08798399,-69.50591000
4.09054399,-69.50591000
4.09310399,-69.50591000
4.09566399,-69.50591000
4.09822399,-69.50591000
4.10078399,-69.50591000
4.10334399,-69.50591000
4.10590399,-69.50591000
4.10846399,-69.50591000
4.11102399,-65.03493000
4.11358399,-65.03493000
4.11614399,-69.50591000
4.11870399,-65.03493000
4.12126399,-65.03493000
4.12382399,-69.50591000
4.12638399,-65.03493000
4.12894399,-65.03493000
4.13150399,-69.50591000
4.13406399,-65.03493000
4.13662399,-69.50591000
4.13918399,-65.03493000
4.14174399,-69.50591000
4.14430399,-65.03493000
4.14686399,-65.03493000
4.14942399,-65.03493000
4.15198399,-65.03493000
4.15454399,-69.50591000
4.15710399,-65.03493000
4.15966399,-65.03493000
4.16222399,-69.50591000
4.16478399,-65.03493000
4.16734399,-69.50591000
4.16990399,-65.03493000
4.17246399,-65.03493000
4.17502399,-65.03493000
4.17758399,-69.50591000
4.18014399,-69.50591000
4.18270399,-69.50591000
4.18526399,-65.03493000
4.18782399,-65.03493000
4.19038399,-65.03493000
4.19294399,-69.50591000
4.19550399,-65.03493000
4.19806399,-65.03493000
4.20062399,-65.03493000
4.20318399,-69.50591000
4.20574399,-69.50591000
4.20830399,-69.50591000
4.21086399,-69.50591000
4.21342399,-65.03493000
4.21598399,-65.03493000
4.21854399,-65.03493000
4.22110399,-69.50591000
4.22366399,-65.03493000
4.22622399,-65.03493000
4.22878399,-65.03493000
4.23134399,-69.50591000
4.23390399,-65.03493000
4.23646399,-65.03493000
4.23902399,-65.03493000
4.24158399,-65.03493000
4.24414399,-65.03493000
4.24670399,-65.03493000
4.24926399,-65.03493000
4.25182399,-69.50591000
4.25438399,-65.03493000
4.25694399,-69.50591000
4.25950399,-65.03493000
4.26206399,-65.03493000
4.26462399,-65.03493000
4.26718399,-69.50591000
4.26974399,-65.03493000
4.27230399,-65.03493000
4.27486399,-69.50591000
4.27742399,-65.03493000
4.27998399,-65.03493000
4.28254399,-65.03493000
4.28510399,-69.50591000
4.28766399,-65.03493000
4.29022399,-69.50591000
4.29278399,-65.03493000
4.29534399,-65.03493000
4.29790399,-65.03493000
4.30046399,-65.03493000
4.30302399,-69.50591000
4.30558399,-65.03493000
4.30814399,-69.50591000
4.31070399,-69.50591000
4.31326399,-65.03493000
4.31582399,-65.03493000
4.31838399,-65.03493000
4.32094399,-69.50591000
4.32350399,-69.50591000
4.32606399,-69.50591000
4.32862399,-69.50591000
4.33118399,-65.03493000
4.33374399,-69.50591000
4.33630399,-69.50591000
4.33886399,-69.50591000
4.34142399,-65.03493000
4.34398399,-65.03493000
4.34654399,-65.03493000
4.34910399,-69.50591000
4.35166399,-65.03493000
4.35422399,-69.50591000
4.35678399,-69.50591000
4.35934399,-69.50591000
4.36190399,-69.50591000
4.36446399,-69.50591000
4.36702399,-69.50591000
4.36958399,-69.50591000
4.37214399,-69.50591000
4.37470399,-65.03493000
4.37726399,-65.03493000
4.37982399,-69.50591000
4.38238399,-69.50591000
4.38494399,-69.50591000
4.38750399,-69.50591000
4.39006399,-65.03493000
4.39262399,-69.50591000
4.39518399,-65.03493000
4.39774399,-65.03493000
4.40030399,-65.03493000
4.40286399,-65.03493000
4.40542399,-69.50591000
4.40798399,-65.03493000
4.41054399,-69.50591000
4.41310399,-65.03493000
4.41566399,-65.03493000
4.41822399,-69.50591000
4.42078399,-65.03493000
4.42334399,-69.50591000
4.42590399,-69.50591000
4.42846399,-69.50591000
4.43102399,-69.50591000
4.43358399,-65.03493000
4.43614399,-65.03493000
4.43870399,-69.50591000
4.44126399,-69.50591000
4.44382399,-69.50591000
4.44638399,-69.50591000
4.44894399,-69.50591000
4.45150399,-69.50591000
4.45406399,-65.03493000
4.45662399,-69.50591000
4.45918399,-65.03493000
4.46174399,-65.03493000
4.46430399,-65.03493000
4.46686399,-69.50591000
4.46942399,-69.50591000
4.47198399,-69.50591000
4.47454399,-65.03493000
4.47710399,-65.03493000
4.47966399,-65.03493000
4.48222399,-69.50591000
4.48478399,-65.03493000
4.48734399,-65.03493000
4.48990399,-69.50591000
4.49246399,-69.50591000
4.49502399,-65.03493000
4.49758399,-65.03493000
4.50014399,-65.03493000
4.50270399,-65.03493000
4.50526399,-69.50591000
4.50782399,-65.03493000
4.51038399,-69.50591000
4.51294399,-69.50591000
4.51550399,-69.50591000
4.51806399,-65.03493000
4.52062399,-69.50591000
4.52318399,-65.03493000
4.52574399,-69.50591000
4.52830399,-69.50591000
4.53086399,-69.50591000
4.53342399,-69.50591000
4.53598399,-69.50591000
4.53854399,-65.03493000
4.54110399,-69.50591000
4.54366399,-69.50591000
4.54622399,-65.03493000
4.54878399,-69.50591000
4.55134399,-65.03493000
4.55390399,-69.50591000
4.55646399,-69.50591000
4.55902399,-69.50591000
4.56158399,-69.50591000
4.56414399,-69.50591000
4.56670399,-69.50591000
4.56926399,-69.50591000
4.57182399,-69.50591000
4.57438399,-69.50591000
4.57694399,-69.50591000
4.57950399,-69.50591000
4.58206399,-69.50591000
4.58462399,-69.50591000
4.58718399,-69.50591000
4.58974399,-69.50591000
4.59230399,-69.50591000
4.59486399,-69.50591000
4.59742399,-69.50591000
4.59998399,-69.50591000
4.60254399,-69.50591000
4.60510399,-69.50591000
4.60766399,-69.50591000
4.61022399,-69.50591000
4.61278399,-69.50591000
4.61534399,-69.50591000
4.61790399,-69.50591000
4.62046399,-69.50591000
4.62302399,-69.50591000
4.62558399,-69.50591000
4.62814399,-69.50591000
4.63070399,-69.50591000
4.63326399,-69.50591000
4.63582399,-69.50591000
4.63838399,-69.50591000
4.64094399,-69.50591000
4.64350399,-69.50591000
4.64606399,-69.50591000
4.64862399,-69.50591000
4.65118399,-69.50591000
4.65374399,-69.50591000
4.65630399,-69.50591000
4.65886399,-69.50591000
4.66142399,-69.50591000
4.66398399,-69.50591000
4.66654399,-69.50591000
4.66910399,-69.50591000
4.67166399,-69.50591000
4.67422399,-69.50591000
4.67678399,-69.50591000
4.67934399,-69.50591000
4.68190399,-69.50591000
4.68446399,-69.50591000
4.68702399,-69.50591000
4.68958399,-69.50591000
4.69214399,-69.50591000
4.69470399,-69.50591000
4.69726399,-69.50591000
4.69982399,-69.50591000
4.70238399,-69.50591000
4.70494399,-69.50591000
4.70750399,-69.50591000
4.71006399,-69.50591000
4.71262399,-69.50591000
4.71518399,-69.50591000
4.71774399,-69.50591000
4.72030399,-69.50591000
4.72286399,-69.50591000
4.72542399,-69.50591000
4.72798399,-69.50591000
4.73054399,-69.50591000
4.73310399,-65.03493000
4.73566399,-69.50591000
4.73822399,-69.50591000
4.74078399,-69.50591000
4.74334399,-69.50591000
4.74590399,-69.50591000
4.74846399,-69.50591000
4.75102399,-69.50591000
4.75358399,-69.50591000
4.75614399,-69.50591000
4.75870399,-69.50591000
4.76126399,-69.50591000
4.76382399,-69.50591000
4.76638399,-69.50591000
4.76894399,-69.50591000
4.77150399,-69.50591000
4.77406399,-69.50591000
4.77662399,-69.50591000
4.77918399,-69.50591000
4.78174399,-69.50591000
4.78430399,-69.50591000
4.78686399,-69.50591000
4.78942399,-69.50591000
4.79198399,-69.50591000
4.79454399,-69.50591000
4.79710399,-69.50591000
4.79966399,-69.50591000
4.80222399,-69.50591000
4.80478399,-69.50591000
4.80734399,-69.50591000
4.80990399,-69.50591000
4.81246399,-69.50591000
4.81502399,-69.50591000
4.81758399,-69.50591000
4.82014399,-69.50591000
4.82270399,-69.50591000
4.82526399,-69.50591000
4.82782399,-69.50591000
4.83038399,-69.50591000
4.83294399,-69.50591000
4.83550399,-69.50591000
4.83806399,-69.50591000
4.84062399,-69.50591000
4.84318399,-69.50591000
4.84574399,-69.50591000
4.84830399,-69.50591000
4.85086399,-69.50591000
4.85342399,-69.50591000
4.85598399,-69.50591000
4.85854399,-69.50591000
4.86110399,-69.50591000
4.86366399,-69.50591000
4.86622399,-69.50591000
4.86878399,-69.50591000
4.87134399,-69.50591000
4.87390399,-69.50591000
4.87646399,-69.50591000
4.87902399,-69.50591000
4.88158399,-69.50591000
4.88414399,-69.50591000
4.88670399,-69.50591000
4.88926399,-69.50591000
4.89182399,-69.50591000
4.89438399,-69.50591000
4.89694399,-69.50591000
4.89950399,-69.50591000
4.90206399,-69.50591000
4.90462399,-69.50591000
4.90718399,-69.50591000
4.90974399,-69.50591000
4.91230399,-69.50591000
4.91486399,-69.50591000
4.91742399,-69.50591000
4.91998399,-69.50591000
4.92254399,-69.50591000
4.92510399,-69.50591000
4.92766399,-69.50591000
4.93022399,-69.50591000
4.93278399,-69.50591000
4.93534399,-69.50591000
4.93790399,-65.03493000
4.94046399,-69.50591000
4.94302399,-69.50591000
4.94558399,-69.50591000
4.94814399,-69.50591000
4.95070399,-69.50591000
4.95326399,-69.50591000
4.95582399,-69.50591000
4.95838399,-69.50591000
4.96094399,-65.03493000
4.96350399,-69.50591000
4.96606399,-69.50591000
4.96862399,-69.50591000
4.97118399,-65.03493000
4.97374399,-69.50591000
4.97630399,-69.50591000
4.97886399,-69.50591000
4.98142399,-69.50591000
4.98398399,-65.03493000
4.98654399,-69.50591000
4.98910399,-69.50591000
4.99166399,-69.50591000
4.99422399,-69.50591000
4.99678399,-69.50591000
4.99934399,-69.50591000
5.00190399,-69.50591000
5.00446399,-65.03493000
5.00702399,-69.50591000
5.00958399,-69.50591000
5.01214399,-69.50591000
5.01470399,-69.50591000
5.01726399,-69.50591000
5.01982399,-69.50591000
5.02238399,-69.50591000
5.02494399,-69.50591000
5.02750399,-69.50591000
5.03006399,-69.50591000
5.03262399,-69.50591000
5.03518399,-69.50591000
5.03774399,-69.50591000
5.04030399,-69.50591000
5.04286399,-69.50591000
5.04542399,-69.50591000
5.04798399,-69.50591000
5.05054399,-69.50591000
5.05310399,-69.50591000
5.05566399,-69.50591000
5.05822399,-69.50591000
5.06078399,-69.50591000
5.06334399,-69.50591000
5.06590399,-69.50591000
5.06846399,-69.50591000
5.07102399,-69.50591000
5.07358399,-69.50591000
5.07614399,-69.50591000
5.07870399,-69.50591000
5.08126399,-69.50591000
5.08382399,-69.50591000
5.08638399,-69.50591000
5.08894399,-69.50591000
5.09150399,-69.50591000
5.09406399,-69.50591000
5.09662399,-69.50591000
5.09918399,-69.50591000
5.10174399,-69.50591000
5.10430399,-69.50591000
5.10686399,-69.50591000
5.10942399,-69.50591000
5.11198399,-69.50591000
5.11454399,-69.50591000
5.11710399,-69.50591000
5.11966399,-69.50591000
5.12222399,-69.50591000
5.12478399,-65.03493000
5.12734399,-69.50591000
5.12990399,-69.50591000
5.13246399,-69.50591000
5.13502399,-69.50591000
5.13758399,-69.50591000
5.14014399,-69.50591000
5.14270399,-69.50591000
5.14526399,-69.50591000
5.14782399,-69.50591000
5.15038399,-69.50591000
5.15294399,-69.50591000
5.15550399,-69.50591000
5.15806399,-69.50591000
5.16062399,-69.50591000
5.16318399,-69.50591000
5.16574399,-69.50591000
5.16830399,-69.50591000
5.17086399,-69.50591000
5.17342399,-69.50591000
5.17598399,-69.50591000
5.17854399,-69.50591000
5.18110399,-69.50591000
5.18366399,-69.50591000
5.18622399,-69.50591000
5.18878399,-69.50591000
5.19134399,-69.50591000
5.19390399,-69.50591000
5.19646399,-69.50591000
5.19902399,-65.03493000
5.20158399,-69.50591000
5.20414399,-69.50591000
5.20670399,-69.50591000
5.20926399,-69.50591000
5.21182399,-69.50591000
5.21438399,-69.50591000
5.21694399,-69.50591000
5.21950399,-69.50591000
5.22206399,-69.50591000
5.22462399,-69.50591000
5.22718399,-69.50591000
5.22974399,-69.50591000
5.23230399,-69.50591000
5.23486399,-69.50591000
5.23742399,-69.50591000
5.23998399,-69.50591000
5.24254399,-69.50591000
5.24510399,-69.50591000
5.24766399,-69.50591000
5.25022399,-69.50591000
5.25278399,-69.50591000
5.25534399,-69.50591000
5.25790399,-69.50591000
5.26046399,-69.50591000
5.26302399,-69.50591000
5.26558399,-69.50591000
5.26814399,-69.50591000
5.27070399,-69.50591000
5.27326399,-69.50591000
5.27582399,-69.50591000
5.27838399,-69.50591000
5.28094399,-69.50591000
5.28350399,-69.50591000
5.28606399,-69.50591000
5.28862399,-69.50591000
5.29118399,-69.50591000
5.29374399,-69.50591000
5.29630399,-69.50591000
5.29886398,-69.50591000
5.30142398,-69.50591000
5.30398398,-69.50591000
5.30654398,-69.50591000
5.30910398,-69.50591000
5.31166398,-69.50591000
5.31422398,-69.50591000
5.31678398,-69.50591000
5.31934398,-69.50591000
5.32190398,-69.50591000
5.32446398,-69.50591000
5.32702398,-69.50591000
5.32958398,-69.50591000
5.33214398,-69.50591000
5.33470398,-69.50591000
5.33726398,-69.50591000
5.33982398,-69.50591000
5.34238398,-69.50591000
5.34494398,-69.50591000
5.34750398,-69.50591000
5.35006398,-69.50591000
5.35262398,-69.50591000
5.35518398,-69.50591000
5.35774398,-69.50591000
5.36030398,-69.50591000
5.36286398,-65.03493000
5.36542398,-69.50591000
5.36798398,-69.50591000
5.37054398,-69.50591000
5.37310398,-69.50591000
5.37566398,-69.50591000
5.37822398,-69.50591000
5.38078398,-69.50591000
5.38334398,-69.50591000
5.38590398,-69.50591000
5.38846398,-69.50591000
5.39102398,-69.50591000
5.39358398,-69.50591000
5.39614398,-69.50591000
5.39870398,-69.50591000
5.40126398,-69.50591000
5.40382398,-69.50591000
5.40638398,-69.50591000
5.40894398,-69.50591000
5.41150398,-69.50591000
5.41406398,-69.50591000
5.41662398,-69.50591000
5.41918398,-69.50591000
5.42174398,-69.50591000
5.42430398,-69.50591000
5.42686398,-69.50591000
5.42942398,-69.50591000
5.43198398,-69.50591000
5.43454398,-69.50591000
5.43710398,-69.50591000
5.43966398,-69.50591000
5.44222398,-69.50591000
5.44478398,-69.50591000
5.44734398,-69.50591000
5.44990398,-69.50591000
5.45246398,-69.50591000
5.45502398,-69.50591000
5.45758398,-69.50591000
5.46014398,-69.50591000
5.46270398,-69.50591000
5.46526398,-69.50591000
5.46782398,-69.50591000
5.47038398,-69.50591000
5.47294398,-69.50591000
5.47550398,-69.50591000
5.47806398,-69.50591000
5.48062398,-69.50591000
5.48318398,-69.50591000
5.48574398,-69.50591000
5.48830398,-69.50591000
5.49086398,-69.50591000
5.49342398,-65.03493000
5.49598398,-69.50591000
5.49854398,-69.50591000
5.50110398,-69.50591000
5.50366398,-69.50591000
5.50622398,-69.50591000
5.50878398,-69.50591000
5.51134398,-69.50591000
5.51390398,-69.50591000
5.51646398,-69.50591000
5.51902398,-69.50591000
5.52158398,-69.50591000
5.52414398,-69.50591000
5.52670398,-69.50591000
5.52926398,-69.50591000
5.53182398,-69.50591000
5.53438398,-69.50591000
5.53694398,-69.50591000
5.53950398,-69.50591000
5.54206398,-69.50591000
5.54462398,-69.50591000
5.54718398,-69.50591000
5.54974398,-69.50591000
5.55230398,-69.50591000
5.55486398,-69.50591000
5.55742398,-69.50591000
5.55998398,-69.50591000
5.56254398,-69.50591000
5.56510398,-69.50591000
5.56766398,-69.50591000
5.57022398,-69.50591000
5.57278398,-69.50591000
5.57534398,-69.50591000
5.57790398,-69.50591000
5.58046398,-69.50591000
5.58302398,-69.50591000
5.58558398,-69.50591000
5.58814398,-69.50591000
5.59070398,-69.50591000
5.59326398,-69.50591000
5.59582398,-69.50591000
5.59838398,-69.50591000
5.60094398,-69.50591000
5.60350398,-69.50591000
5.60606398,-69.50591000
5.60862398,-69.50591000
5.61118398,-69.50591000
5.61374398,-69.50591000
5.61630398,-69.50591000
5.61886398,-69.50591000
5.62142398,-69.50591000
5.62398398,-69.50591000
5.62654398,-69.50591000
5.62910398,-69.50591000
5.63166398,-69.50591000
5.63422398,-69.50591000
5.63678398,-69.50591000
5.63934398,-69.50591000
5.64190398,-69.50591000
5.64446398,-69.50591000
5.64702398,-69.50591000
5.64958398,-69.50591000
5.65214398,-69.50591000
5.65470398,-69.50591000
5.65726398,-69.50591000
5.65982398,-69.50591000
5.66238398,-69.50591000
5.66494398,-69.50591000
5.66750398,-69.50591000
5.67006398,-69.50591000
5.67262398,-69.50591000
5.67518398,-69.50591000
5.67774398,-69.50591000
5.68030398,-69.50591000
5.68286398,-69.50591000
5.68542398,-69.50591000
5.68798398,-69.50591000
5.69054398,-69.50591000
5.69310398,-69.50591000
5.69566398,-69.50591000
5.69822398,-69.50591000
5.70078398,-69.50591000
5.70334398,-69.50591000
5.70590398,-69.50591000
5.70846398,-69.50591000
5.71102398,-69.50591000
5.71358398,-69.50591000
5.71614398,-69.50591000
5.71870398,-69.50591000
5.72126398,-69.50591000
5.72382398,-69.50591000
5.72638398,-69.50591000
5.72894398,-69.50591000
5.73150398,-69.50591000
5.73406398,-69.50591000
5.73662398,-69.50591000
5.73918398,-69.50591000
5.74174398,-69.50591000
5.74430398,-69.50591000
5.74686398,-69.50591000
5.74942398,-69.50591000
5.75198398,-69.50591000
5.75454398,-69.50591000
5.75710398,-69.50591000
5.75966398,-69.50591000
5.76222398,-69.50591000
5.76478398,-69.50591000
5.76734398,-69.50591000
5.76990398,-69.50591000
5.77246398,-69.50591000
5.77502398,-69.50591000
5.77758398,-69.50591000
5.78014398,-69.50591000
5.78270398,-69.50591000
5.78526398,-69.50591000
5.78782398,-69.50591000
5.79038398,-69.50591000
5.79294398,-69.50591000
5.79550398,-69.50591000
5.79806398,-69.50591000
5.80062398,-69.50591000
5.80318398,-69.50591000
5.80574398,-69.50591000
5.80830398,-69.50591000
5.81086398,-69.50591000
5.81342398,-69.50591000
5.81598398,-69.50591000
5.81854398,-69.50591000
5.82110398,-69.50591000
5.82366398,-69.50591000
5.82622398,-69.50591000
5.82878398,-69.50591000
5.83134398,-69.50591000
5.83390398,-69.50591000
5.83646398,-69.50591000
5.83902398,-69.50591000
5.84158398,-69.50591000
5.84414398,-69.50591000
5.84670398,-69.50591000
5.84926398,-69.50591000
5.85182398,-69.50591000
5.85438398,-69.50591000
5.85694398,-69.50591000
5.85950398,-69.50591000
5.86206398,-69.50591000
5.86462398,-69.50591000
5.86718398,-69.50591000
5.86974398,-69.50591000
5.87230398,-69.50591000
5.87486398,-69.50591000
5.87742398,-69.50591000
5.87998398,-69.50591000
5.88254398,-69.50591000
5.88510398,-69.50591000
5.88766398,-69.50591000
5.89022398,-69.50591000
5.89278398,-69.50591000
5.89534398,-69.50591000
5.89790398,-69.50591000
5.90046398,-69.50591000
5.90302398,-69.50591000
5.90558398,-69.50591000
5.90814398,-69.50591000
5.91070398,-69.50591000
5.91326398,-69.50591000
5.91582398,-69.50591000
5.91838398,-69.50591000
5.92094398,-69.50591000
5.92350398,-69.50591000
5.92606398,-69.50591000
5.92862398,-69.50591000
5.93118398,-69.50591000
5.93374398,-69.50591000
5.93630398,-69.50591000
5.93886398,-69.50591000
5.94142398,-69.50591000
5.94398398,-69.50591000
5.94654398,-69.50591000
5.94910398,-69.50591000
5.95166398,-69.50591000
5.95422398,-69.50591000
5.95678398,-69.50591000
5.95934398,-69.50591000
5.96190398,-69.50591000
5.96446398,-69.50591000
5.96702398,-69.50591000
5.96958398,-69.50591000
5.97214398,-69.50591000
5.97470398,-69.50591000
5.97726398,-69.50591000
5.97982398,-69.50591000
5.98238398,-69.50591000
5.98494398,-69.50591000
5.98750398,-69.50591000
5.99006398,-69.50591000
5.99262398,-69.50591000
5.99518398,-69.50591000
5.99774398,-69.50591000
6.00030398,-69.50591000
6.00286398,-69.50591000
6.00542398,-69.50591000
6.00798398,-69.50591000
6.01054398,-69.50591000
6.01310398,-69.50591000
6.01566398,-69.50591000
6.01822398,-69.50591000
6.02078398,-69.50591000
6.02334398,-69.50591000
6.02590398,-69.50591000
6.02846398,-69.50591000
6.03102398,-69.50591000
6.03358398,-69.50591000
6.03614398,-69.50591000
6.03870398,-69.50591000
6.04126398,-69.50591000
6.04382398,-69.50591000
6.04638398,-69.50591000
6.04894398,-69.50591000
6.05150398,-69.50591000
6.05406398,-69.50591000
6.05662398,-69.50591000
6.05918398,-65.03493000
6.06174398,-69.50591000
6.06430398,-69.50591000
6.06686398,-69.50591000
6.06942398,-69.50591000
6.07198398,-69.50591000
6.07454398,-69.50591000
6.07710398,-69.50591000
6.07966398,-69.50591000
6.08222398,-69.50591000
6.08478398,-69.50591000
6.08734398,-69.50591000
6.08990398,-69.50591000
6.09246398,-69.50591000
6.09502398,-69.50591000
6.09758398,-69.50591000
6.10014398,-69.50591000
6.10270398,-69.50591000
6.10526398,-69.50591000
6.10782398,-69.50591000
6.11038398,-65.03493000
6.11294398,-69.50591000
6.11550398,-69.50591000
6.11806398,-69.50591000
6.12062398,-69.50591000
6.12318398,-69.50591000
6.12574398,-69.50591000
6.12830398,-69.50591000
6.13086398,-65.03493000
6.13342398,-69.50591000
6.13598398,-69.50591000
6.13854398,-69.50591000
6.14110398,-65.03493000
6.14366398,-69.50591000
6.14622398,-69.50591000
6.14878398,-69.50591000
6.15134398,-69.50591000
6.15390398,-65.03493000
6.15646398,-69.50591000
6.15902398,-69.50591000
6.16158398,-69.50591000
6.16414398,-69.50591000
6.16670398,-69.50591000
6.16926398,-69.50591000
6.17182398,-69.50591000
6.17438398,-65.03493000
6.17694398,-69.50591000
6.17950398,-69.50591000
6.18206398,-69.50591000
6.18462398,-69.50591000
6.18718398,-69.50591000
6.18974398,-69.50591000
6.19230398,-69.50591000
6.19486398,-69.50591000
6.19742398,-69.50591000
6.19998398,-69.50591000
6.20254398,-69.50591000
6.20510398,-69.50591000
6.20766398,-69.50591000
6.21022398,-69.50591000
6.21278398,-69.50591000
6.21534398,-69.50591000
6.21790398,-69.50591000
6.22046398,-69.50591000
6.22302398,-69.50591000
6.22558398,-65.03493000
6.22814398,-69.50591000
6.23070398,-69.50591000
6.23326398,-69.50591000
6.23582398,-69.50591000
6.23838398,-69.50591000
6.24094398,-69.50591000
6.24350398,-69.50591000
6.24606398,-69.50591000
6.24862398,-69.50591000
6.25118398,-69.50591000
6.25374398,-69.50591000
6.25630398,-69.50591000
6.25886398,-69.50591000
6.26142398,-69.50591000
6.26398398,-69.50591000
6.26654398,-69.50591000
6.26910398,-69.50591000
6.27166398,-69.50591000
6.27422398,-69.50591000
6.27678398,-69.50591000
6.27934398,-69.50591000
6.28190398,-69.50591000
6.28446398,-69.50591000
6.28702398,-69.50591000
6.28958398,-69.50591000
6.29214398,-69.50591000
6.29470398,-69.50591000
6.29726398,-69.50591000
6.29982398,-69.50591000
6.30238398,-69.50591000
6.30494398,-69.50591000
6.30750398,-69.50591000
6.31006398,-69.50591000
6.31262398,-69.50591000
6.31518398,-69.50591000
6.31774398,-69.50591000
6.32030398,-69.50591000
6.32286398,-69.50591000
6.32542398,-69.50591000
6.32798398,-69.50591000
6.33054398,-69.50591000
6.33310398,-69.50591000
6.33566398,-69.50591000
6.33822398,-69.50591000
6.34078398,-69.50591000
6.34334398,-69.50591000
6.34590398,-65.03493000
6.34846398,-69.50591000
6.35102398,-69.50591000
6.35358398,-69.50591000
6.35614398,-69.50591000
6.35870398,-69.50591000
6.36126398,-69.50591000
6.36382398,-69.50591000
6.36638398,-69.50591000
6.36894398,-69.50591000
6.37150398,-69.50591000
6.37406398,-69.50591000
6.37662398,-69.50591000
6.37918398,-69.50591000
6.38174398,-69.50591000
6.38430398,-69.50591000
6.38686398,-69.50591000
6.38942398,-69.50591000
6.39198398,-69.50591000
6.39454398,-69.50591000
6.39710398,-69.50591000
6.39966398,-69.50591000
6.40222398,-69.50591000
6.40478398,-69.50591000
6.40734398,-69.50591000
6.40990398,-69.50591000
6.41246398,-69.50591000
6.41502398,-69.50591000
6.41758398,-69.50591000
6.42014398,-69.50591000
6.42270398,-69.50591000
6.42526398,-69.50591000
6.42782398,-69.50591000
6.43038398,-69.50591000
6.43294398,-69.50591000
6.43550398,-69.50591000
6.43806398,-69.50591000
6.44062398,-69.50591000
6.44318398,-69.50591000
6.44574398,-69.50591000
6.44830398,-69.50591000
6.45086398,-69.50591000
6.45342398,-69.50591000
6.45598398,-69.50591000
6.45854398,-69.50591000
6.46110398,-69.50591000
6.46366398,-69.50591000
6.46622398,-69.50591000
6.46878398,-69.50591000
6.47134398,-69.50591000
6.47390398,-69.50591000
6.47646398,-69.50591000
6.47902398,-69.50591000
6.48158398,-69.50591000
6.48414398,-69.50591000
6.48670398,-69.50591000
6.48926398,-69.50591000
6.49182398,-69.50591000
6.49438398,-69.50591000
6.49694398,-69.50591000
6.49950398,-69.50591000
6.50206398,-69.50591000
6.50462398,-69.50591000
6.50718398,-69.50591000
6.50974398,-69.50591000
6.51230398,-69.50591000
6.51486398,-69.50591000
6.51742398,-69.50591000
6.51998398,-69.50591000
6.52254398,-69.50591000
6.52510398,-69.50591000
6.52766398,-69.50591000
6.53022398,-69.50591000
6.53278398,-69.50591000
6.53534398,-69.50591000
6.53790398,-69.50591000
6.54046398,-69.50591000
6.54302398,-69.50591000
6.54558398,-69.50591000
6.54814398,-69.50591000
6.55070398,-69.50591000
6.55326398,-69.50591000
6.55582398,-69.50591000
6.55838398,-69.50591000
6.56094398,-69.50591000
6.56350398,-69.50591000
6.56606398,-69.50591000
6.56862398,-69.50591000
6.57118398,-69.50591000
6.57374398,-69.50591000
6.57630398,-69.50591000
6.57886398,-69.50591000
6.58142398,-69.50591000
6.58398398,-69.50591000
6.58654398,-69.50591000
6.58910398,-69.50591000
6.59166398,-69.50591000
6.59422398,-69.50591000
6.59678398,-69.50591000
6.59934398,-69.50591000
6.60190398,-69.50591000
6.60446398,-69.50591000
6.60702398,-69.50591000
6.60958398,-69.50591000
6.61214398,-69.50591000
6.61470398,-69.50591000
6.61726398,-69.50591000
6.61982398,-69.50591000
6.62238398,-69.50591000
6.62494398,-69.50591000
6.62750398,-69.50591000
6.63006398,-69.50591000
6.63262398,-69.50591000
6.63518398,-69.50591000
6.63774398,-69.50591000
6.64030398,-69.50591000
6.64286398,-69.50591000
6.64542398,-69.50591000
6.64798398,-69.50591000
6.65054398,-69.50591000
6.65310398,-69.50591000
6.65566398,-69.50591000
6.65822398,-69.50591000
6.66078398,-69.50591000
6.66334398,-69.50591000
6.66590398,-69.50591000
6.66846398,-69.50591000
6.67102398,-69.50591000
6.67358398,-69.50591000
6.67614398,-69.50591000
6.67870398,-69.50591000
6.68126398,-69.50591000
6.68382398,-69.50591000
6.68638398,-69.50591000
6.68894398,-69.50591000
6.69150398,-69.50591000
6.69406398,-69.50591000
6.69662398,-69.50591000
6.69918398,-69.50591000
6.70174398,-69.50591000
6.70430398,-69.50591000
6.70686398,-69.50591000
6.70942398,-69.50591000
6.71198398,-69.50591000
6.71454398,-69.50591000
6.71710398,-69.50591000
6.71966398,-69.50591000
6.72222398,-69.50591000
6.72478398,-69.50591000
6.72734398,-69.50591000
6.72990398,-69.50591000
6.73246398,-69.50591000
6.73502398,-69.50591000
6.73758398,-69.50591000
6.74014398,-69.50591000
6.74270398,-69.50591000
6.74526398,-69.50591000
6.74782398,-69.50591000
6.75038398,-69.50591000
6.75294398,-69.50591000
6.75550398,-69.50591000
6.75806398,-69.50591000
6.76062398,-69.50591000
6.76318398,-69.50591000
6.76574398,-69.50591000
6.76830398,-69.50591000
6.77086398,-69.50591000
6.77342398,-69.50591000
6.77598398,-69.50591000
6.77854398,-69.50591000
6.78110398,-69.50591000
6.78366398,-69.50591000
6.78622398,-69.50591000
6.78878398,-69.50591000
6.79134398,-69.50591000
6.79390398,-69.50591000
6.79646398,-69.50591000
6.79902398,-69.50591000
6.80158398,-69.50591000
6.80414398,-69.50591000
6.80670398,-73.99212000
6.80926398,-73.99212000
6.81182398,-73.99212000
6.81438398,-73.99212000
6.81694398,-73.99212000
6.81950398,-78.46308000
6.82206398,-73.99212000
6.82462398,-73.99212000
6.82718398,-73.99212000
6.82974398,-78.46308000
6.83230398,-78.46308000
6.83486398,-78.46308000
6.83742398,-78.46308000
6.83998398,-78.46308000
6.84254398,-78.46308000
6.84510398,-78.46308000
6.84766398,-78.46308000
6.85022398,-78.46308000
6.85278398,-78.46308000
6.85534398,-78.46308000
6.85790398,-78.46308000
6.86046398,-78.46308000
6.86302398,-78.46308000
6.86558398,-78.46308000
6.86814398,-78.46308000
6.87070398,-78.46308000
6.87326398,-78.46308000
6.87582398,-82.93404000
6.87838398,-82.93404000
6.88094398,-78.46308000
6.88350398,-82.93404000
6.88606398,-82.93404000
6.88862398,-82.93404000
6.89118398,-82.93404000
6.89374398,-82.93404000
6.89630398,-82.93404000
6.89886398,-87.40501000
6.90142398,-87.40501000
6.90398398,-87.40501000
6.90654398,-87.40501000
6.90910398,-87.40501000
6.91166398,-87.40501000
6.91422398,-87.40501000
6.91678398,-87.40501000
6.91934398,-87.40501000
6.92190398,-87.40501000
6.92446398,-87.40501000
6.92702398,-87.40501000
6.92958398,-91.87596000
6.93214398,-91.87596000
6.93470398,-91.87596000
6.93726398,-91.87596000
6.93982398,-91.87596000
6.94238398,-91.87596000
6.94494397,-96.34693000
6.94750397,-96.34693000
6.95006397,-96.34693000
6.95262397,-96.34693000
6.95518397,-96.34693000
6.95774397,-96.34693000
6.96030397,-96.34693000
6.96286397,-96.34693000
6.96542397,-96.34693000
6.96798397,-96.34693000
6.97054397,-96.34693000
6.97310397,-100.81790000
6.97566397,-96.34693000
6.97822397,-100.81790000
6.98078397,-100.81790000
6.98334397,-100.81790000
6.98590397,-100.81790000
6.98846397,-100.81790000
6.99102397,-100.81790000
6.99358397,-100.81790000
6.99614397,-105.28880000
6.99870397,-100.81790000
7.00126397,-105.28880000
7.00382397,-105.28880000
7.00638397,-105.28880000
7.00894397,-105.28880000
7.01150397,-105.28880000
7.01406397,-105.28880000
7.01662397,-105.28880000
7.01918397,-105.28880000
7.02174397,-105.28880000
7.02430397,-105.28880000
7.02686397,-105.28880000
7.02942397,-105.28880000
7.03198397,-105.28880000
7.03454397,-109.75980000
7.03710397,-109.75980000
7.03966397,-109.75980000
7.04222397,-105.28880000
7.04478397,-109.75980000
7.04734397,-109.75980000
7.04990397,-109.75980000
7.05246397,-114.23080000
7.05502397,-109.75980000
7.05758397,-109.75980000
7.06014397,-114.23080000
7.06270397,-114.23080000
7.06526397,-114.23080000
7.06782397,-114.23080000
7.07038397,-114.23080000
7.07294397,-114.23080000
7.07550397,-114.23080000
7.07806397,-114.23080000
7.08062397,-114.23080000
7.08318397,-114.23080000
7.08574397,-114.23080000
7.08830397,-114.23080000
7.09086397,-114.23080000
7.09342397,-114.23080000
7.09598397,-114.23080000
7.09854397,-114.23080000
7.10110397,-114.23080000
7.10366397,-114.23080000
7.10622397,-114.23080000
7.10878397,-114.23080000
7.11134397,-114.23080000
7.11390397,-114.23080000
7.11646397,-114.23080000
7.11902397,-114.23080000
7.12158397,-114.23080000
7.12414397,-114.23080000
7.12670397,-114.23080000
7.12926397,-114.23080000
7.13182397,-114.23080000
7.13438397,-118.70170000
7.13694397,-114.23080000
7.13950397,-118.70170000
7.14206397,-114.23080000
7.14462397,-118.70170000
7.14718397,-114.23080000
7.14974397,-114.23080000
7.15230397,-114.23080000
7.15486397,-118.70170000
7.15742397,-118.70170000
7.15998397,-114.23080000
7.16254397,-114.23080000
7.16510397,-118.70170000
7.16766397,-114.23080000
7.17022397,-114.23080000
7.17278397,-114.23080000
7.17534397,-114.23080000
7.17790397,-114.23080000
7.18046397,-114.23080000
7.18302397,-114.23080000
7.18558397,-118.70170000
7.18814397,-114.23080000
7.19070397,-118.70170000
7.19326397,-114.23080000
7.19582397,-114.23080000
7.19838397,-114.23080000
7.20094397,-118.70170000
7.20350397,-114.23080000
7.20606397,-114.23080000
7.20862397,-118.70170000
7.21118397,-114.23080000
7.21374397,-114.23080000
7.21630397,-118.70170000
7.21886397,-114.23080000
7.22142397,-114.23080000
7.22398397,-114.23080000
7.22654397,-114.23080000
7.22910397,-114.23080000
7.23166397,-114.23080000
7.23422397,-114.23080000
7.23678397,-114.23080000
7.23934397,-114.23080000
7.24190397,-114.23080000
7.24446397,-114.23080000
7.24702397,-114.23080000
7.24958397,-114.23080000
7.25214397,-114.23080000
7.25470397,-114.23080000
7.25726397,-114.23080000
7.25982397,-114.23080000
7.26238397,-114.23080000
7.26494397,-114.23080000
7.26750397,-114.23080000
7.27006397,-114.23080000
7.27262397,-114.23080000
7.27518397,-114.23080000
7.27774397,-114.23080000
7.28030397,-114.23080000
7.28286397,-114.23080000
7.28542397,-114.23080000
7.28798397,-114.23080000
7.29054397,-114.23080000
7.29310397,-114.23080000
7.29566397,-114.23080000
7.29822397,-114.23080000
7.30078397,-109.75980000
7.30334397,-109.75980000
7.30590397,-109.75980000
7.30846397,-109.75980000
7.31102397,-109.75980000
7.31358397,-109.75980000
7.31614397,-109.75980000
7.31870397,-109.75980000
7.32126397,-105.28880000
7.32382397,-109.75980000
7.32638397,-105.28880000
7.32894397,-109.75980000
7.33150397,-105.28880000
7.33406397,-105.28880000
7.33662397,-105.28880000
7.33918397,-105.28880000
7.34174397,-105.28880000
7.34430397,-105.28880000
7.34686397,-105.28880000
7.34942397,-105.28880000
7.35198397,-105.28880000
7.35454397,-105.28880000
7.35710397,-105.28880000
7.35966397,-105.28880000
7.36222397,-105.28880000
7.36478397,-105.28880000
7.36734397,-105.28880000
7.36990397,-105.28880000
7.37246397,-105.28880000
7.37502397,-105.28880000
7.37758397,-100.81790000
7.38014397,-100.81790000
7.38270397,-100.81790000
7.38526397,-105.28880000
7.38782397,-100.81790000
7.39038397,-100.81790000
7.39294397,-100.81790000
7.39550397,-100.81790000
7.39806397,-100.81790000
7.40062397,-100.81790000
7.40318397,-100.81790000
7.40574397,-100.81790000
7.40830397,-96.34693000
7.41086397,-96.34693000
7.41342397,-96.34693000
7.41598397,-100.81790000
7.41854397,-96.34693000
7.42110397,-96.34693000
7.42366397,-96.34693000
7.42622397,-96.34693000
7.42878397,-96.34693000
7.43134397,-96.34693000
7.43390397,-96.34693000
7.43646397,-96.34693000
7.43902397,-96.34693000
7.44158397,-96.34693000
7.44414397,-96.34693000
7.44670397,-96.34693000
7.44926397,-96.34693000
7.45182397,-96.34693000
7.45438397,-96.34693000
7.45694397,-91.87596000
7.45950397,-91.87596000
7.46206397,-91.87596000
7.46462397,-91.87596000
7.46718397,-91.87596000
7.46974397,-91.87596000
7.47230397,-91.87596000
7.47486397,-91.87596000
7.47742397,-91.87596000
7.47998397,-87.40501000
7.48254397,-87.40501000
7.48510397,-87.40501000
7.48766397,-87.40501000
7.49022397,-87.40501000
7.49278397,-87.40501000
7.49534397,-87.40501000
7.49790397,-87.40501000
7.50046397,-87.40501000
7.50302397,-87.40501000
7.50558397,-87.40501000
7.50814397,-87.40501000
7.51070397,-87.40501000
7.51326397,-87.40501000
7.51582397,-87.40501000
7.51838397,-87.40501000
7.52094397,-87.40501000
7.52350397,-87.40501000
7.52606397,-87.40501000
7.52862397,-87.40501000
7.53118397,-82.93404000
7.53374397,-87.40501000
7.53630397,-82.93404000
7.53886397,-82.93404000
7.54142397,-82.93404000
7.54398397,-82.93404000
7.54654397,-82.93404000
7.54910397,-82.93404000
7.55166397,-82.93404000
7.55422397,-82.93404000
7.55678397,-82.93404000
7.55934397,-78.46308000
7.56190397,-82.93404000
7.56446397,-78.46308000
7.56702397,-78.46308000
7.56958397,-78.46308000
7.57214397,-78.46308000
7.57470397,-78.46308000
7.57726397,-78.46308000
7.57982397,-78.46308000
7.58238397,-78.46308000
7.58494397,-78.46308000
7.58750397,-78.46308000
7.59006397,-78.46308000
7.59262397,-78.46308000
7.59518397,-78.46308000
7.59774397,-78.46308000
7.60030397,-78.46308000
7.60286397,-78.46308000
7.60542397,-78.46308000
7.60798397,-78.46308000
7.61054397,-78.46308000
7.61310397,-78.46308000
7.61566397,-73.99212000
7.61822397,-73.99212000
7.62078397,-78.46308000
7.62334397,-73.99212000
7.62590397,-73.99212000
7.62846397,-73.99212000
7.63102397,-73.99212000
7.63358397,-73.99212000
7.63614397,-69.50591000
7.63870397,-73.99212000
7.64126397,-73.99212000
7.64382397,-69.50591000
7.64638397,-73.99212000
7.64894397,-73.99212000
7.65150397,-69.50591000
7.65406397,-73.99212000
7.65662397,-69.50591000
7.65918397,-69.50591000
7.66174397,-69.50591000
7.66430397,-69.50591000
7.66686397,-69.50591000
7.66942397,-69.50591000
7.67198397,-69.50591000
7.67454397,-69.50591000
7.67710397,-69.50591000
7.67966397,-73.99212000
7.68222397,-69.50591000
7.68478397,-69.50591000
7.68734397,-69.50591000
7.68990397,-69.50591000
7.69246397,-69.50591000
7.69502397,-69.50591000
7.69758397,-69.50591000
7.70014397,-69.50591000
7.70270397,-69.50591000
7.70526397,-69.50591000
7.70782397,-69.50591000
7.71038397,-69.50591000
7.71294397,-69.50591000
7.71550397,-69.50591000
7.71806397,-69.50591000
7.72062397,-69.50591000
7.72318397,-69.50591000
7.72574397,-69.50591000
7.72830397,-69.50591000
7.73086397,-69.50591000
7.73342397,-69.50591000
7.73598397,-69.50591000
7.73854397,-69.50591000
7.74110397,-69.50591000
7.74366397,-69.50591000
7.74622397,-69.50591000
7.74878397,-69.50591000
7.75134397,-69.50591000
7.75390397,-69.50591000
7.75646397,-65.03493000
7.75902397,-69.50591000
7.76158397,-65.03493000
7.76414397,-65.03493000
7.76670397,-69.50591000
7.76926397,-65.03493000
7.77182397,-69.50591000
7.77438397,-69.50591000
7.77694397,-65.03493000
7.77950397,-65.03493000
7.78206397,-65.03493000
7.78462397,-65.03493000
7.78718397,-65.03493000
7.78974397,-65.03493000
7.79230397,-69.50591000
7.79486397,-65.03493000
7.79742397,-65.03493000
7.79998397,-65.03493000
7.80254397,-65.03493000
7.80510397,-69.50591000
7.80766397,-65.03493000
7.81022397,-65.03493000
7.81278397,-65.03493000
7.81534397,-65.03493000
7.81790397,-65.03493000
7.82046397,-65.03493000
7.82302397,-65.03493000
7.82558397,-65.03493000
7.82814397,-65.03493000
7.83070397,-60.56398000
7.83326397,-65.03493000
7.83582397,-60.56398000
7.83838397,-65.03493000
7.84094397,-60.56398000
7.84350397,-60.56398000
7.84606397,-65.03493000
7.84862397,-65.03493000
7.85118397,-60.56398000
7.85374397,-60.56398000
7.85630397,-60.56398000
7.85886397,-60.56398000
7.86142397,-60.56398000
7.86398397,-60.56398000
7.86654397,-60.56398000
7.86910397,-60.56398000
7.87166397,-56.09302000
7.87422397,-60.56398000
7.87678397,-60.56398000
7.87934397,-56.09302000
7.88190397,-56.09302000
7.88446397,-60.56398000
7.88702397,-56.09302000
7.88958397,-60.56398000
7.89214397,-56.09302000
7.89470397,-56.09302000
7.89726397,-56.09302000
7.89982397,-51.62206000
7.90238397,-51.62206000
7.90494397,-51.62206000
7.90750397,-56.09302000
7.91006397,-51.62206000
7.91262397,-51.62206000
7.91518397,-51.62206000
7.91774397,-51.62206000
7.92030397,-51.62206000
7.92286397,-51.62206000
7.92542397,-51.62206000
7.92798397,-51.62206000
7.93054397,-51.62206000
7.93310397,-51.62206000
7.93566397,-51.62206000
7.93822397,-51.62206000
7.94078397,-47.15109000
7.94334397,-47.15109000
7.94590397,-47.15109000
7.94846397,-47.15109000
7.95102397,-42.68013000
7.95358397,-42.68013000
7.95614397,-42.68013000
7.95870397,-42.68013000
7.96126397,-42.68013000
7.96382397,-42.68013000
7.96638397,-42.68013000
7.96894397,-42.68013000
7.97150397,-42.68013000
7.97406397,-38.20917000
7.97662397,-38.20917000
7.97918397,-38.20917000
7.98174397,-38.20917000
7.98430397,-38.20917000
7.98686397,-33.73821000
7.98942397,-33.73821000
7.99198397,-33.73821000
7.99454397,-33.73821000
7.99710397,-33.73821000
7.99966397,-33.73821000
8.00222397,-33.73821000
8.00478397,-33.73821000
8.00734397,-33.73821000
8.00990397,-33.73821000
8.01246397,-33.73821000
8.01502397,-33.73821000
8.01758397,-33.73821000
8.02014397,-29.26725000
8.02270397,-29.26725000
8.02526397,-29.26725000
8.02782397,-29.26725000
8.03038397,-24.79629000
8.03294397,-24.79629000
8.03550397,-24.79629000
8.03806397,-24.79629000
8.04062397,-24.79629000
8.04318397,-24.79629000
8.04574397,-24.79629000
8.04830397,-24.79629000
8.05086397,-20.32533000
8.05342397,-20.32533000
8.05598397,-20.32533000
8.05854397,-20.32533000
8.06110397,-15.85437000
8.06366397,-20.32533000
8.06622397,-20.32533000
8.06878397,-15.85437000
8.07134397,-15.85437000
8.07390397,-15.85437000
8.07646397,-15.85437000
8.07902397,-15.85437000
8.08158397,-15.85437000
8.08414397,-15.85437000
8.08670397,-15.85437000
8.08926397,-15.85437000
8.09182397,-15.85437000
8.09438397,-15.85437000
8.09694397,-15.85437000
8.09950397,-11.38340000
8.10206397,-15.85437000
8.10462397,-15.85437000
8.10718397,-15.85437000
8.10974397,-15.85437000
8.11230397,-15.85437000
8.11486397,-11.38340000
8.11742397,-11.38340000
8.11998397,-11.38340000
8.12254397,-11.38340000
8.12510397,-11.38340000
8.12766397,-11.38340000
8.13022397,-11.38340000
8.13278397,-11.38340000
8.13534397,-11.38340000
8.13790397,-11.38340000
8.14046397,-11.38340000
8.14302397,-11.38340000
8.14558397,-11.38340000
8.14814397,-6.91244200
8.15070397,-6.91244200
8.15326397,-11.38340000
8.15582397,-6.91244200
8.15838397,-11.38340000
8.16094397,-6.91244200
8.16350397,-6.91244200
8.16606397,-6.91244200
8.16862397,-6.91244200
8.17118397,-6.91244200
8.17374397,-6.91244200
8.17630397,-6.91244200
8.17886397,-6.91244200
8.18142397,-6.91244200
8.18398397,-6.91244200
8.18654397,-6.91244200
8.18910397,-6.91244200
8.19166397,-6.91244200
8.19422397,-6.91244200
8.19678397,-6.91244200
8.19934397,-6.91244200
8.20190397,-6.91244200
8.20446397,-6.91244200
8.20702397,-6.91244200
8.20958397,-6.91244200
8.21214397,-6.91244200
8.21470397,-6.91244200
8.21726397,-6.91244200
8.21982397,-6.91244200
8.22238397,-6.91244200
8.22494397,-6.91244200
8.22750397,-6.91244200
8.23006397,-6.91244200
8.23262397,-6.91244200
8.23518397,-6.91244200
8.23774397,-6.91244200
8.24030397,-6.91244200
8.24286397,-6.91244200
8.24542397,-6.91244200
8.24798397,-6.91244200
8.25054397,-6.91244200
8.25310397,-6.91244200
8.25566397,-6.91244200
8.25822397,-6.91244200
8.26078397,-6.91244200
8.26334397,-6.91244200
8.26590397,-6.91244200
8.26846397,-6.91244200
8.27102397,-11.38340000
8.27358397,-6.91244200
8.27614397,-6.91244200
8.27870397,-6.91244200
8.28126397,-6.91244200
8.28382397,-11.38340000
8.28638397,-6.91244200
8.28894397,-6.91244200
8.29150397,-11.38340000
8.29406397,-11.38340000
8.29662397,-11.38340000
8.29918397,-11.38340000
8.30174397,-11.38340000
8.30430397,-11.38340000
8.30686397,-11.38340000
8.30942397,-11.38340000
8.31198397,-11.38340000
8.31454397,-11.38340000
8.31710397,-11.38340000
8.31966397,-11.38340000
8.32222397,-11.38340000
8.32478397,-11.38340000
8.32734397,-11.38340000
8.32990397,-11.38340000
8.33246397,-11.38340000
8.33502397,-11.38340000
8.33758397,-11.38340000
8.34014397,-11.38340000
8.34270397,-11.38340000
8.34526397,-15.85437000
8.34782397,-15.85437000
8.35038397,-15.85437000
8.35294397,-15.85437000
8.35550397,-15.85437000
8.35806397,-15.85437000
8.36062397,-15.85437000
8.36318397,-15.85437000
8.36574397,-15.85437000
8.36830397,-15.85437000
8.37086397,-15.85437000
8.37342397,-15.85437000
8.37598397,-15.85437000
8.37854397,-15.85437000
8.38110397,-15.85437000
8.38366397,-15.85437000
8.38622397,-15.85437000
8.38878397,-15.85437000
8.39134397,-15.85437000
8.39390397,-15.85437000
8.39646397,-15.85437000
8.39902397,-20.32533000
8.40158397,-15.85437000
8.40414397,-20.32533000
8.40670397,-20.32533000
8.40926397,-20.32533000
8.41182397,-20.32533000
8.41438397,-15.85437000
8.41694397,-20.32533000
8.41950397,-20.32533000
8.42206397,-20.32533000
8.42462397,-24.79629000
8.42718397,-20.32533000
8.42974397,-24.79629000
8.43230397,-24.79629000
8.43486397,-24.79629000
8.43742397,-24.79629000
8.43998397,-24.79629000
8.44254397,-24.79629000
8.44510397,-24.79629000
8.44766397,-24.79629000
8.45022397,-24.79629000
8.45278397,-24.79629000
8.45534397,-24.79629000
8.45790397,-24.79629000
8.46046397,-24.79629000
8.46302397,-24.79629000
8.46558397,-24.79629000
8.46814397,-24.79629000
8.47070397,-29.26725000
8.47326397,-24.79629000
8.47582397,-29.26725000
8.47838397,-29.26725000
8.48094397,-29.26725000
8.48350397,-29.26725000
8.48606397,-29.26725000
8.48862397,-29.26725000
8.49118397,-29.26725000
8.49374397,-29.26725000
8.49630397,-29.26725000
8.49886397,-33.73821000
8.50142397,-29.26725000
8.50398397,-33.73821000
8.50654397,-29.26725000
8.50910397,-33.73821000
8.51166397,-33.73821000
8.51422397,-33.73821000
8.51678397,-33.73821000
8.51934397,-33.73821000
8.52190397,-33.73821000
8.52446397,-33.73821000
8.52702397,-33.73821000
8.52958397,-33.73821000
8.53214397,-33.73821000
8.53470397,-33.73821000
8.53726397,-33.73821000
8.53982397,-33.73821000
8.54238397,-33.73821000
8.54494397,-33.73821000
8.54750397,-38.20917000
8.55006397,-33.73821000
8.55262397,-38.20917000
8.55518397,-33.73821000
8.55774397,-38.20917000
8.56030397,-38.20917000
8.56286397,-38.20917000
8.56542397,-38.20917000
8.56798397,-42.68013000
8.57054397,-42.68013000
8.57310397,-42.68013000
8.57566397,-42.68013000
8.57822397,-42.68013000
8.58078397,-38.20917000
8.58334397,-42.68013000
8.58590397,-42.68013000
8.58846396,-42.68013000
8.59102396,-42.68013000
8.59358396,-42.68013000
8.59614396,-42.68013000
8.59870396,-42.68013000
8.60126396,-42.68013000
8.60382396,-42.68013000
8.60638396,-42.68013000
8.60894396,-42.68013000
8.61150396,-42.68013000
8.61406396,-47.15109000
8.61662396,-47.15109000
8.61918396,-47.15109000
8.62174396,-47.15109000
8.62430396,-47.15109000
8.62686396,-47.15109000
8.62942396,-47.15109000
8.63198396,-51.62206000
8.63454396,-47.15109000
8.63710396,-47.15109000
8.63966396,-51.62206000
8.64222396,-47.15109000
8.64478396,-51.62206000
8.64734396,-51.62206000
8.64990396,-51.62206000
8.65246396,-51.62206000
8.65502396,-51.62206000
8.65758396,-51.62206000
8.66014396,-51.62206000
8.66270396,-51.62206000
8.66526396,-51.62206000
8.66782396,-51.62206000
8.67038396,-56.09302000
8.67294396,-51.62206000
8.67550396,-56.09302000
8.67806396,-51.62206000
8.68062396,-56.09302000
8.68318396,-51.62206000
8.68574396,-56.09302000
8.68830396,-56.09302000
8.69086396,-56.09302000
8.69342396,-56.09302000
8.69598396,-60.56398000
8.69854396,-56.09302000
8.70110396,-56.09302000
8.70366396,-56.09302000
8.70622396,-60.56398000
8.70878396,-60.56398000
8.71134396,-60.56398000
8.71390396,-60.56398000
8.71646396,-60.56398000
8.71902396,-60.56398000
8.72158396,-60.56398000
8.72414396,-60.56398000
8.72670396,-60.56398000
8.72926396,-60.56398000
8.73182396,-60.56398000
8.73438396,-65.03493000
8.73694396,-65.03493000
8.73950396,-60.56398000
8.74206396,-60.56398000
8.74462396,-60.56398000
8.74718396,-60.56398000
8.74974396,-60.56398000
8.75230396,-65.03493000
8.75486396,-65.03493000
8.75742396,-65.03493000
8.75998396,-65.03493000
8.76254396,-65.03493000
8.76510396,-65.03493000
8.76766396,-65.03493000
8.77022396,-65.03493000
8.77278396,-69.50591000
8.77534396,-69.50591000
8.77790396,-69.50591000
8.78046396,-65.03493000
8.78302396,-65.03493000
8.78558396,-69.50591000
8.78814396,-69.50591000
8.79070396,-65.03493000
8.79326396,-69.50591000
8.79582396,-69.50591000
8.79838396,-69.50591000
8.80094396,-69.50591000
8.80350396,-69.50591000
8.80606396,-69.50591000
8.80862396,-69.50591000
8.81118396,-69.50591000
8.81374396,-69.50591000
8.81630396,-69.50591000
8.81886396,-69.50591000
8.82142396,-69.50591000
8.82398396,-69.50591000
8.82654396,-69.50591000
8.82910396,-69.50591000
8.83166396,-69.50591000
8.83422396,-69.50591000
8.83678396,-73.99212000
8.83934396,-69.50591000
8.84190396,-69.50591000
8.84446396,-73.99212000
8.84702396,-69.50591000
8.84958396,-73.99212000
8.85214396,-73.99212000
8.85470396,-69.50591000
8.85726396,-73.99212000
8.85982396,-69.50591000
8.86238396,-73.99212000
8.86494396,-73.99212000
8.86750396,-73.99212000
8.87006396,-78.46308000
8.87262396,-73.99212000
8.87518396,-73.99212000
8.87774396,-73.99212000
8.88030396,-73.99212000
8.88286396,-73.99212000
8.88542396,-73.99212000
8.88798396,-73.99212000
8.89054396,-78.46308000
8.89310396,-73.99212000
8.89566396,-78.46308000
8.89822396,-78.46308000
8.90078396,-78.46308000
8.90334396,-78.46308000
8.90590396,-78.46308000
8.90846396,-78.46308000
8.91102396,-78.46308000
8.91358396,-78.46308000
8.91614396,-78.46308000
8.91870396,-78.46308000
8.92126396,-78.46308000
8.92382396,-78.46308000
8.92638396,-78.46308000
8.92894396,-78.46308000
8.93150396,-78.46308000
8.93406396,-78.46308000
8.93662396,-78.46308000
8.93918396,-78.46308000
8.94174396,-78.46308000
8.94430396,-78.46308000
8.94686396,-78.46308000
8.94942396,-78.46308000
8.95198396,-78.46308000
8.95454396,-78.46308000
8.95710396,-78.46308000
8.95966396,-78.46308000
8.96222396,-78.46308000
8.96478396,-78.46308000
8.96734396,-78.46308000
8.96990396,-78.46308000
8.97246396,-78.46308000
8.97502396,-78.46308000
8.97758396,-78.46308000
8.98014396,-78.46308000
8.98270396,-78.46308000
8.98526396,-78.46308000
8.98782396,-78.46308000
8.99038396,-78.46308000
8.99294396,-78.46308000
8.99550396,-78.46308000
8.99806396,-78.46308000
9.00062396,-78.46308000
9.00318396,-78.46308000
9.00574396,-78.46308000
9.00830396,-78.46308000
9.01086396,-78.46308000
9.01342396,-78.46308000
9.01598396,-78.46308000
9.01854396,-78.46308000
9.02110396,-78.46308000
9.02366396,-78.46308000
9.02622396,-78.46308000
9.02878396,-78.46308000
9.03134396,-78.46308000
9.03390396,-78.46308000
9.03646396,-78.46308000
9.03902396,-78.46308000
9.04158396,-78.46308000
9.04414396,-78.46308000
9.04670396,-78.46308000
9.04926396,-78.46308000
9.05182396,-78.46308000
9.05438396,-78.46308000
9.05694396,-78.46308000
9.05950396,-78.46308000
9.06206396,-78.46308000
9.06462396,-78.46308000
9.06718396,-78.46308000
9.06974396,-78.46308000
9.07230396,-78.46308000
9.07486396,-78.46308000
9.07742396,-78.46308000
9.07998396,-78.46308000
9.08254396,-78.46308000
9.08510396,-78.46308000
9.08766396,-78.46308000
9.09022396,-78.46308000
9.09278396,-78.46308000
9.09534396,-78.46308000
9.09790396,-78.46308000
9.10046396,-78.46308000
9.10302396,-78.46308000
9.10558396,-78.46308000
9.10814396,-78.46308000
9.11070396,-78.46308000
9.11326396,-78.46308000
9.11582396,-78.46308000
9.11838396,-78.46308000
9.12094396,-78.46308000
9.12350396,-78.46308000
9.12606396,-78.46308000
9.12862396,-78.46308000
9.13118396,-78.46308000
9.13374396,-78.46308000
9.13630396,-78.46308000
9.13886396,-78.46308000
9.14142396,-82.93404000
9.14398396,-82.93404000
9.14654396,-78.46308000
9.14910396,-78.46308000
9.15166396,-82.93404000
9.15422396,-78.46308000
9.15678396,-78.46308000
9.15934396,-78.46308000
9.16190396,-78.46308000
9.16446396,-78.46308000
9.16702396,-78.46308000
9.16958396,-82.93404000
9.17214396,-78.46308000
9.17470396,-78.46308000
9.17726396,-78.46308000
9.17982396,-78.46308000
9.18238396,-82.93404000
9.18494396,-78.46308000
9.18750396,-78.46308000
9.19006396,-78.46308000
9.19262396,-78.46308000
9.19518396,-78.46308000
9.19774396,-78.46308000
9.20030396,-78.46308000
9.20286396,-78.46308000
9.20542396,-78.46308000
9.20798396,-78.46308000
9.21054396,-78.46308000
9.21310396,-78.46308000
9.21566396,-78.46308000
9.21822396,-78.46308000
9.22078396,-82.93404000
9.22334396,-82.93404000
9.22590396,-82.93404000
9.22846396,-82.93404000
9.23102396,-78.46308000
9.23358396,-78.46308000
9.23614396,-78.46308000
9.23870396,-78.46308000
9.24126396,-78.46308000
9.24382396,-82.93404000
9.24638396,-78.46308000
9.24894396,-78.46308000
9.25150396,-78.46308000
9.25406396,-78.46308000
9.25662396,-78.46308000
9.25918396,-82.93404000
9.26174396,-78.46308000
9.26430396,-78.46308000
9.26686396,-78.46308000
9.26942396,-78.46308000
9.27198396,-78.46308000
9.27454396,-82.93404000
9.27710396,-82.93404000
9.27966396,-78.46308000
9.28222396,-78.46308000
9.28478396,-78.46308000
9.28734396,-82.93404000
9.28990396,-78.46308000
9.29246396,-78.46308000
9.29502396,-78.46308000
9.29758396,-78.46308000
9.30014396,-82.93404000
9.30270396,-78.46308000
9.30526396,-78.46308000
9.30782396,-78.46308000
9.31038396,-78.46308000
9.31294396,-78.46308000
9.31550396,-78.46308000
9.31806396,-78.46308000
9.32062396,-78.46308000
9.32318396,-78.46308000
9.32574396,-78.46308000
9.32830396,-78.46308000
9.33086396,-78.46308000
9.33342396,-78.46308000
9.33598396,-78.46308000
9.33854396,-78.46308000
9.34110396,-78.46308000
9.34366396,-78.46308000
9.34622396,-78.46308000
9.34878396,-78.46308000
9.35134396,-78.46308000
9.35390396,-78.46308000
9.35646396,-78.46308000
9.35902396,-78.46308000
9.36158396,-78.46308000
9.36414396,-78.46308000
9.36670396,-78.46308000
9.36926396,-78.46308000
9.37182396,-78.46308000
9.37438396,-78.46308000
9.37694396,-78.46308000
9.37950396,-78.46308000
9.38206396,-78.46308000
9.38462396,-78.46308000
9.38718396,-78.46308000
9.38974396,-78.46308000
9.39230396,-78.46308000
9.39486396,-78.46308000
9.39742396,-78.46308000
9.39998396,-78.46308000
9.40254396,-78.46308000
9.40510396,-78.46308000
9.40766396,-78.46308000
9.41022396,-78.46308000
9.41278396,-78.46308000
9.41534396,-78.46308000
9.41790396,-78.46308000
9.42046396,-78.46308000
9.42302396,-78.46308000
9.42558396,-78.46308000
9.42814396,-78.46308000
9.43070396,-78.46308000
9.43326396,-78.46308000
9.43582396,-78.46308000
9.43838396,-78.46308000
9.44094396,-78.46308000
9.44350396,-78.46308000
9.44606396,-78.46308000
9.44862396,-78.46308000
9.45118396,-78.46308000
9.45374396,-78.46308000
9.45630396,-78.46308000
9.45886396,-78.46308000
9.46142396,-78.46308000
9.46398396,-78.46308000
9.46654396,-78.46308000
9.46910396,-78.46308000
9.47166396,-78.46308000
9.47422396,-78.46308000
9.47678396,-78.46308000
9.47934396,-78.46308000
9.48190396,-78.46308000
9.48446396,-78.46308000
9.48702396,-78.46308000
9.48958396,-78.46308000
9.49214396,-78.46308000
9.49470396,-78.46308000
9.49726396,-78.46308000
9.49982396,-78.46308000
9.50238396,-78.46308000
9.50494396,-78.46308000
9.50750396,-78.46308000
9.51006396,-78.46308000
9.51262396,-78.46308000
9.51518396,-78.46308000
9.51774396,-78.46308000
9.52030396,-78.46308000
9.52286396,-78.46308000
9.52542396,-78.46308000
9.52798396,-78.46308000
9.53054396,-78.46308000
9.53310396,-78.46308000
9.53566396,-78.46308000
9.53822396,-78.46308000
9.54078396,-78.46308000
9.54334396,-78.46308000
9.54590396,-78.46308000
9.54846396,-78.46308000
9.55102396,-78.46308000
9.55358396,-78.46308000
9.55614396,-78.46308000
9.55870396,-78.46308000
9.56126396,-78.46308000
9.56382396,-78.46308000
9.56638396,-78.46308000
9.56894396,-78.46308000
9.57150396,-78.46308000
9.57406396,-78.46308000
9.57662396,-78.46308000
9.57918396,-78.46308000
9.58174396,-78.46308000
9.58430396,-78.46308000
9.58686396,-78.46308000
9.58942396,-78.46308000
9.59198396,-78.46308000
9.59454396,-78.46308000
9.59710396,-78.46308000
9.59966396,-78.46308000
9.60222396,-78.46308000
9.60478396,-78.46308000
9.60734396,-78.46308000
9.60990396,-78.46308000
9.61246396,-78.46308000
9.61502396,-78.46308000
9.61758396,-78.46308000
9.62014396,-78.46308000
9.62270396,-78.46308000
9.62526396,-78.46308000
9.62782396,-78.46308000
9.63038396,-78.46308000
9.63294396,-78.46308000
9.63550396,-78.46308000
9.63806396,-78.46308000
9.64062396,-78.46308000
9.64318396,-78.46308000
9.64574396,-78.46308000
9.64830396,-78.46308000
9.65086396,-78.46308000
9.65342396,-78.46308000
9.65598396,-78.46308000
9.65854396,-78.46308000
9.66110396,-78.46308000
9.66366396,-78.46308000
9.66622396,-78.46308000
9.66878396,-78.46308000
9.67134396,-78.46308000
9.67390396,-78.46308000
9.67646396,-78.46308000
9.67902396,-78.46308000
9.68158396,-78.46308000
9.68414396,-78.46308000
9.68670396,-78.46308000
9.68926396,-78.46308000
9.69182396,-78.46308000
9.69438396,-78.46308000
9.69694396,-78.46308000
9.69950396,-78.46308000
9.70206396,-78.46308000
9.70462396,-78.46308000
9.70718396,-78.46308000
9.70974396,-78.46308000
9.71230396,-78.46308000
9.71486396,-78.46308000
9.71742396,-78.46308000
9.71998396,-78.46308000
9.72254396,-78.46308000
9.72510396,-78.46308000
9.72766396,-78.46308000
9.73022396,-78.46308000
9.73278396,-78.46308000
9.73534396,-78.46308000
9.73790396,-78.46308000
9.74046396,-78.46308000
9.74302396,-78.46308000
9.74558396,-78.46308000
9.74814396,-78.46308000
9.75070396,-78.46308000
9.75326396,-78.46308000
9.75582396,-78.46308000
9.75838396,-78.46308000
9.76094396,-78.46308000
9.76350396,-73.99212000
9.76606396,-73.99212000
9.76862396,-73.99212000
9.77118396,-78.46308000
9.77374396,-78.46308000
9.77630396,-73.99212000
9.77886396,-73.99212000
9.78142396,-78.46308000
9.78398396,-73.99212000
9.78654396,-73.99212000
9.78910396,-78.46308000
9.79166396,-73.99212000
9.79422396,-73.99212000
9.79678396,-73.99212000
9.79934396,-73.99212000
9.80190396,-73.99212000
9.80446396,-73.99212000
9.80702396,-73.99212000
9.80958396,-73.99212000
9.81214396,-73.99212000
9.81470396,-73.99212000
9.81726396,-73.99212000
9.81982396,-73.99212000
9.82238396,-73.99212000
9.82494396,-73.99212000
9.82750396,-73.99212000
9.83006396,-78.46308000
9.83262396,-73.99212000
9.83518396,-78.46308000
9.83774396,-78.46308000
9.84030396,-78.46308000
9.84286396,-73.99212000
9.84542396,-73.99212000
9.84798396,-78.46308000
9.85054396,-78.46308000
9.85310396,-73.99212000
9.85566396,-73.99212000
9.85822396,-73.99212000
9.86078396,-73.99212000
9.86334396,-73.99212000
9.86590396,-73.99212000
9.86846396,-73.99212000
9.87102396,-73.99212000
9.87358396,-73.99212000
9.87614396,-73.99212000
9.87870396,-73.99212000
9.88126396,-73.99212000
9.88382396,-73.99212000
9.88638396,-73.99212000
9.88894396,-73.99212000
9.89150396,-73.99212000
9.89406396,-78.46308000
9.89662396,-73.99212000
9.89918396,-73.99212000
9.90174396,-73.99212000
9.90430396,-73.99212000
9.90686396,-73.99212000
9.90942396,-73.99212000
9.91198396,-73.99212000
9.91454396,-73.99212000
9.91710396,-73.99212000
9.91966396,-73.99212000
9.92222396,-73.99212000
9.92478396,-73.99212000
9.92734396,-73.99212000
9.92990396,-73.99212000
9.93246396,-73.99212000
9.93502396,-73.99212000
9.93758396,-73.99212000
9.94014396,-73.99212000
9.94270396,-73.99212000
9.94526396,-73.99212000
9.94782396,-73.99212000
9.95038396,-73.99212000
9.95294396,-73.99212000
9.95550396,-73.99212000
9.95806396,-73.99212000
9.96062396,-73.99212000
9.96318396,-69.50591000
9.96574396,-73.99212000
9.96830396,-73.99212000
9.97086396,-69.50591000
9.97342396,-73.99212000
9.97598396,-73.99212000
9.97854396,-73.99212000
9.98110396,-69.50591000
9.98366396,-73.99212000
9.98622396,-73.99212000
9.98878396,-73.99212000
9.99134396,-69.50591000
9.99390396,-69.50591000
9.99646396,-69.50591000
9.99902396,-73.99212000
10.00158396,-73.99212000
10.00414396,-69.50591000
10.00670396,-69.50591000
10.00926396,-69.50591000
10.01182396,-73.99212000
10.01438396,-69.50591000
10.01694396,-73.99212000
10.01950396,-69.50591000
10.02206396,-69.50591000
10.02462396,-73.99212000
10.02718396,-69.50591000
10.02974396,-69.50591000
10.03230396,-69.50591000
10.03486396,-69.50591000
10.03742396,-69.50591000
10.03998396,-69.50591000
10.04254396,-69.50591000
10.04510396,-73.99212000
10.04766396,-73.99212000
10.05022396,-69.50591000
10.05278396,-69.50591000
10.05534396,-73.99212000
10.05790396,-69.50591000
10.06046396,-69.50591000
10.06302396,-69.50591000
10.06558396,-69.50591000
10.06814396,-73.99212000
10.07070396,-69.50591000
10.07326396,-69.50591000
10.07582396,-69.50591000
10.07838396,-69.50591000
10.08094396,-69.50591000
10.08350396,-69.50591000
10.08606396,-69.50591000
10.08862396,-69.50591000
10.09118396,-69.50591000
10.09374396,-69.50591000
10.09630396,-69.50591000
10.09886396,-69.50591000
10.10142396,-69.50591000
10.10398396,-69.50591000
10.10654396,-73.99212000
10.10910396,-69.50591000
10.11166396,-69.50591000
10.11422396,-69.50591000
10.11678396,-69.50591000
10.11934396,-69.50591000
10.12190396,-69.50591000
10.12446396,-69.50591000
10.12702396,-69.50591000
10.12958396,-69.50591000
10.13214396,-69.50591000
10.13470396,-69.50591000
10.13726396,-69.50591000
10.13982396,-69.50591000
10.14238396,-73.99212000
10.14494396,-69.50591000
10.14750396,-69.50591000
10.15006396,-69.50591000
10.15262396,-69.50591000
10.15518396,-69.50591000
10.15774396,-69.50591000
10.16030396,-73.99212000
10.16286396,-69.50591000
10.16542396,-69.50591000
10.16798396,-69.50591000
10.17054396,-69.50591000
10.17310396,-69.50591000
10.17566396,-69.50591000
10.17822396,-69.50591000
10.18078396,-69.50591000
10.18334396,-69.50591000
10.18590396,-69.50591000
10.18846396,-69.50591000
10.19102396,-69.50591000
10.19358396,-69.50591000
10.19614396,-69.50591000
10.19870396,-69.50591000
10.20126396,-69.50591000
10.20382396,-69.50591000
10.20638396,-69.50591000
10.20894396,-69.50591000
10.21150396,-69.50591000
10.21406396,-69.50591000
10.21662396,-69.50591000
10.21918396,-69.50591000
10.22174396,-69.50591000
10.22430396,-69.50591000
10.22686396,-69.50591000
10.22942396,-69.50591000
10.23198396,-69.50591000
10.23454395,-69.50591000
10.23710395,-69.50591000
10.23966395,-69.50591000
10.24222395,-69.50591000
10.24478395,-69.50591000
10.24734395,-69.50591000
10.24990395,-69.50591000
10.25246395,-69.50591000
10.25502395,-69.50591000
10.25758395,-69.50591000
10.26014395,-69.50591000
10.26270395,-69.50591000
10.26526395,-69.50591000
10.26782395,-69.50591000
10.27038395,-69.50591000
10.27294395,-69.50591000
10.27550395,-69.50591000
10.27806395,-69.50591000
10.28062395,-69.50591000
10.28318395,-69.50591000
10.28574395,-69.50591000
10.28830395,-69.50591000
10.29086395,-69.50591000
10.29342395,-69.50591000
10.29598395,-69.50591000
10.29854395,-69.50591000
10.30110395,-69.50591000
10.30366395,-69.50591000
10.30622395,-69.50591000
10.30878395,-69.50591000
10.31134395,-69.50591000
10.31390395,-69.50591000
10.31646395,-69.50591000
10.31902395,-69.50591000
10.32158395,-69.50591000
10.32414395,-69.50591000
10.32670395,-69.50591000
10.32926395,-69.50591000
10.33182395,-69.50591000
10.33438395,-69.50591000
10.33694395,-69.50591000
10.33950395,-69.50591000
10.34206395,-69.50591000
10.34462395,-69.50591000
10.34718395,-69.50591000
10.34974395,-69.50591000
10.35230395,-69.50591000
10.35486395,-69.50591000
10.35742395,-69.50591000
10.35998395,-69.50591000
10.36254395,-69.50591000
10.36510395,-69.50591000
10.36766395,-69.50591000
10.37022395,-69.50591000
10.37278395,-69.50591000
10.37534395,-69.50591000
10.37790395,-69.50591000
10.38046395,-69.50591000
10.38302395,-69.50591000
10.38558395,-69.50591000
10.38814395,-69.50591000
10.39070395,-69.50591000
10.39326395,-69.50591000
10.39582395,-69.50591000
10.39838395,-69.50591000
10.40094395,-69.50591000
10.40350395,-69.50591000
10.40606395,-69.50591000
10.40862395,-69.50591000
10.41118395,-69.50591000
10.41374395,-69.50591000
10.41630395,-69.50591000
10.41886395,-69.50591000
10.42142395,-69.50591000
10.42398395,-69.50591000
10.42654395,-69.50591000
10.42910395,-69.50591000
10.43166395,-69.50591000
10.43422395,-69.50591000
10.43678395,-69.50591000
10.43934395,-69.50591000
10.44190395,-69.50591000
10.44446395,-69.50591000
10.44702395,-69.50591000
10.44958395,-69.50591000
10.45214395,-69.50591000
10.45470395,-69.50591000
10.45726395,-69.50591000
10.45982395,-69.50591000
10.46238395,-69.50591000
10.46494395,-69.50591000
10.46750395,-69.50591000
10.47006395,-69.50591000
10.47262395,-69.50591000
10.47518395,-69.50591000
10.47774395,-69.50591000
10.48030395,-69.50591000
10.48286395,-69.50591000
10.48542395,-69.50591000
10.48798395,-69.50591000
10.49054395,-69.50591000
10.49310395,-69.50591000
10.49566395,-69.50591000
10.49822395,-69.50591000
10.50078395,-69.50591000
10.50334395,-69.50591000
10.50590395,-69.50591000
10.50846395,-69.50591000
10.51102395,-69.50591000
10.51358395,-69.50591000
10.51614395,-69.50591000
10.51870395,-69.50591000
10.52126395,-69.50591000
10.52382395,-69.50591000
10.52638395,-69.50591000
10.52894395,-69.50591000
10.53150395,-69.50591000
10.53406395,-69.50591000
10.53662395,-69.50591000
10.53918395,-69.50591000
10.54174395,-69.50591000
10.54430395,-69.50591000
10.54686395,-69.50591000
10.54942395,-69.50591000
10.55198395,-69.50591000
10.55454395,-69.50591000
10.55710395,-69.50591000
10.55966395,-69.50591000
10.56222395,-69.50591000
10.56478395,-69.50591000
10.56734395,-69.50591000
10.56990395,-69.50591000
10.57246395,-69.50591000
10.57502395,-69.50591000
10.57758395,-69.50591000
10.58014395,-69.50591000
10.58270395,-69.50591000
10.58526395,-69.50591000
10.58782395,-69.50591000
10.59038395,-69.50591000
10.59294395,-69.50591000
10.59550395,-69.50591000
10.59806395,-69.50591000
10.60062395,-69.50591000
10.60318395,-69.50591000
10.60574395,-69.50591000
10.60830395,-69.50591000
10.61086395,-69.50591000
10.61342395,-69.50591000
10.61598395,-69.50591000
10.61854395,-69.50591000
10.62110395,-69.50591000
10.62366395,-69.50591000
10.62622395,-69.50591000
10.62878395,-69.50591000
10.63134395,-69.50591000
10.63390395,-69.50591000
10.63646395,-69.50591000
10.63902395,-69.50591000
10.64158395,-69.50591000
10.64414395,-69.50591000
10.64670395,-69.50591000
10.64926395,-69.50591000
10.65182395,-69.50591000
10.65438395,-69.50591000
10.65694395,-69.50591000
10.65950395,-69.50591000
10.66206395,-69.50591000
10.66462395,-69.50591000
10.66718395,-69.50591000
10.66974395,-69.50591000
10.67230395,-69.50591000
10.67486395,-69.50591000
10.67742395,-69.50591000
10.67998395,-69.50591000
10.68254395,-69.50591000
10.68510395,-69.50591000
10.68766395,-69.50591000
10.69022395,-69.50591000
10.69278395,-69.50591000
10.69534395,-69.50591000
10.69790395,-69.50591000
10.70046395,-69.50591000
10.70302395,-69.50591000
10.70558395,-69.50591000
10.70814395,-69.50591000
10.71070395,-69.50591000
10.71326395,-69.50591000
10.71582395,-69.50591000
10.71838395,-69.50591000
10.72094395,-69.50591000
10.72350395,-69.50591000
10.72606395,-69.50591000
10.72862395,-69.50591000
10.73118395,-69.50591000
10.73374395,-69.50591000
10.73630395,-69.50591000
10.73886395,-69.50591000
10.74142395,-69.50591000
10.74398395,-69.50591000
10.74654395,-69.50591000
10.74910395,-69.50591000
10.75166395,-69.50591000
10.75422395,-69.50591000
10.75678395,-69.50591000
10.75934395,-69.50591000
10.76190395,-69.50591000
10.76446395,-69.50591000
10.76702395,-69.50591000
10.76958395,-69.50591000
10.77214395,-69.50591000
10.77470395,-69.50591000
10.77726395,-73.99212000
10.77982395,-69.50591000
10.78238395,-73.99212000
10.78494395,-69.50591000
10.78750395,-69.50591000
10.79006395,-69.50591000
10.79262395,-69.50591000
10.79518395,-69.50591000
10.79774395,-69.50591000
10.80030395,-69.50591000
10.80286395,-69.50591000
10.80542395,-69.50591000
10.80798395,-69.50591000
10.81054395,-69.50591000
10.81310395,-69.50591000
10.81566395,-69.50591000
10.81822395,-69.50591000
10.82078395,-69.50591000
10.82334395,-69.50591000
10.82590395,-69.50591000
10.82846395,-69.50591000
10.83102395,-69.50591000
10.83358395,-69.50591000
10.83614395,-69.50591000
10.83870395,-73.99212000
10.84126395,-69.50591000
10.84382395,-69.50591000
10.84638395,-69.50591000
10.84894395,-73.99212000
10.85150395,-69.50591000
10.85406395,-69.50591000
10.85662395,-69.50591000
10.85918395,-69.50591000
10.86174395,-69.50591000
10.86430395,-69.50591000
10.86686395,-69.50591000
10.86942395,-69.50591000
10.87198395,-69.50591000
10.87454395,-69.50591000
10.87710395,-69.50591000
10.87966395,-69.50591000
10.88222395,-69.50591000
10.88478395,-69.50591000
10.88734395,-69.50591000
10.88990395,-69.50591000
10.89246395,-69.50591000
10.89502395,-69.50591000
10.89758395,-69.50591000
10.90014395,-69.50591000
10.90270395,-69.50591000
10.90526395,-73.99212000
10.90782395,-69.50591000
10.91038395,-73.99212000
10.91294395,-69.50591000
10.91550395,-69.50591000
10.91806395,-69.50591000
10.92062395,-69.50591000
10.92318395,-69.50591000
10.92574395,-69.50591000
10.92830395,-69.50591000
10.93086395,-69.50591000
10.93342395,-69.50591000
10.93598395,-69.50591000
10.93854395,-69.50591000
10.94110395,-69.50591000
10.94366395,-73.99212000
10.94622395,-69.50591000
10.94878395,-69.50591000
10.95134395,-73.99212000
10.95390395,-69.50591000
10.95646395,-73.99212000
10.95902395,-69.50591000
10.96158395,-69.50591000
10.96414395,-73.99212000
10.96670395,-69.50591000
10.96926395,-69.50591000
10.97182395,-69.50591000
10.97438395,-73.99212000
10.97694395,-69.50591000
10.97950395,-69.50591000
10.98206395,-73.99212000
10.98462395,-69.50591000
10.98718395,-69.50591000
10.98974395,-69.50591000
10.99230395,-69.50591000
10.99486395,-69.50591000
10.99742395,-69.50591000
10.99998395,-69.50591000
11.00254395,-69.50591000
11.00510395,-69.50591000
11.00766395,-69.50591000
11.01022395,-69.50591000
11.01278395,-69.50591000
11.01534395,-69.50591000
11.01790395,-69.50591000
11.02046395,-73.99212000
11.02302395,-69.50591000
11.02558395,-69.50591000
11.02814395,-69.50591000
11.03070395,-69.50591000
11.03326395,-69.50591000
11.03582395,-69.50591000
11.03838395,-69.50591000
11.04094395,-69.50591000
11.04350395,-69.50591000
11.04606395,-69.50591000
11.04862395,-69.50591000
11.05118395,-69.50591000
11.05374395,-69.50591000
11.05630395,-73.99212000
11.05886395,-69.50591000
11.06142395,-69.50591000
11.06398395,-69.50591000
11.06654395,-69.50591000
11.06910395,-69.50591000
11.07166395,-69.50591000
11.07422395,-69.50591000
11.07678395,-69.50591000
11.07934395,-69.50591000
11.08190395,-69.50591000
11.08446395,-69.50591000
11.08702395,-69.50591000
11.08958395,-69.50591000
11.09214395,-69.50591000
11.09470395,-69.50591000
11.09726395,-69.50591000
11.09982395,-69.50591000
11.10238395,-69.50591000
11.10494395,-69.50591000
11.10750395,-69.50591000
11.11006395,-69.50591000
11.11262395,-69.50591000
11.11518395,-69.50591000
11.11774395,-69.50591000
11.12030395,-69.50591000
11.12286395,-69.50591000
11.12542395,-69.50591000
11.12798395,-69.50591000
11.13054395,-69.50591000
11.13310395,-69.50591000
11.13566395,-69.50591000
11.13822395,-69.50591000
11.14078395,-69.50591000
11.14334395,-69.50591000
11.14590395,-69.50591000
11.14846395,-69.50591000
11.15102395,-69.50591000
11.15358395,-73.99212000
11.15614395,-69.50591000
11.15870395,-69.50591000
11.16126395,-69.50591000
11.16382395,-69.50591000
11.16638395,-69.50591000
11.16894395,-69.50591000
11.17150395,-69.50591000
11.17406395,-69.50591000
11.17662395,-69.50591000
11.17918395,-69.50591000
11.18174395,-69.50591000
11.18430395,-69.50591000
11.18686395,-69.50591000
11.18942395,-69.50591000
11.19198395,-69.50591000
11.19454395,-73.99212000
11.19710395,-69.50591000
11.19966395,-69.50591000
11.20222395,-69.50591000
11.20478395,-69.50591000
11.20734395,-73.99212000
11.20990395,-69.50591000
11.21246395,-69.50591000
11.21502395,-69.50591000
11.21758395,-69.50591000
11.22014395,-69.50591000
11.22270395,-69.50591000
11.22526395,-69.50591000
11.22782395,-69.50591000
11.23038395,-69.50591000
11.23294395,-69.50591000
11.23550395,-69.50591000
11.23806395,-69.50591000
11.24062395,-73.99212000
11.24318395,-69.50591000
11.24574395,-69.50591000
11.24830395,-69.50591000
11.25086395,-69.50591000
11.25342395,-69.50591000
11.25598395,-69.50591000
11.25854395,-69.50591000
11.26110395,-69.50591000
11.26366395,-69.50591000
11.26622395,-69.50591000
11.26878395,-69.50591000
11.27134395,-69.50591000
11.27390395,-69.50591000
11.27646395,-69.50591000
11.27902395,-73.99212000
11.28158395,-69.50591000
11.28414395,-69.50591000
11.28670395,-69.50591000
11.28926395,-69.50591000
11.29182395,-73.99212000
11.29438395,-73.99212000
11.29694395,-69.50591000
11.29950395,-69.50591000
11.30206395,-69.50591000
11.30462395,-69.50591000
11.30718395,-69.50591000
11.30974395,-69.50591000
11.31230395,-69.50591000
11.31486395,-69.50591000
11.31742395,-69.50591000
11.31998395,-73.99212000
11.32254395,-69.50591000
11.32510395,-69.50591000
11.32766395,-69.50591000
11.33022395,-69.50591000
11.33278395,-69.50591000
11.33534395,-69.50591000
11.33790395,-69.50591000
11.34046395,-69.50591000
11.34302395,-69.50591000
11.34558395,-69.50591000
11.34814395,-69.50591000
11.35070395,-69.50591000
11.35326395,-69.50591000
11.35582395,-69.50591000
11.35838395,-69.50591000
11.36094395,-69.50591000
11.36350395,-69.50591000
11.36606395,-69.50591000
11.36862395,-69.50591000
11.37118395,-69.50591000
11.37374395,-69.50591000
11.37630395,-69.50591000
11.37886395,-69.50591000
11.38142395,-69.50591000
11.38398395,-69.50591000
11.38654395,-69.50591000
11.38910395,-69.50591000
11.39166395,-69.50591000
11.39422395,-69.50591000
11.39678395,-69.50591000
11.39934395,-69.50591000
11.40190395,-69.50591000
11.40446395,-69.50591000
11.40702395,-69.50591000
11.40958395,-69.50591000
11.41214395,-69.50591000
11.41470395,-69.50591000
11.41726395,-69.50591000
11.41982395,-69.50591000
11.42238395,-69.50591000
11.42494395,-69.50591000
11.42750395,-69.50591000
11.43006395,-69.50591000
11.43262395,-69.50591000
11.43518395,-69.50591000
11.43774395,-69.50591000
11.44030395,-69.50591000
11.44286395,-69.50591000
11.44542395,-69.50591000
11.44798395,-69.50591000
11.45054395,-69.50591000
11.45310395,-69.50591000
11.45566395,-69.50591000
11.45822395,-69.50591000
11.46078395,-69.50591000
11.46334395,-69.50591000
11.46590395,-65.03493000
11.46846395,-69.50591000
11.47102395,-69.50591000
11.47358395,-69.50591000
11.47614395,-69.50591000
11.47870395,-69.50591000
11.48126395,-69.50591000
11.48382395,-69.50591000
11.48638395,-69.50591000
11.48894395,-69.50591000
11.49150395,-69.50591000
11.49406395,-69.50591000
11.49662395,-69.50591000
11.49918395,-69.50591000
11.50174395,-69.50591000
11.50430395,-69.50591000
11.50686395,-69.50591000
11.50942395,-69.50591000
11.51198395,-69.50591000
11.51454395,-69.50591000
11.51710395,-69.50591000
11.51966395,-69.50591000
11.52222395,-69.50591000
11.52478395,-69.50591000
11.52734395,-69.50591000
11.52990395,-69.50591000
11.53246395,-69.50591000
11.53502395,-69.50591000
11.53758395,-69.50591000
11.54014395,-69.50591000
11.54270395,-69.50591000
11.54526395,-69.50591000
11.54782395,-69.50591000
11.55038395,-69.50591000
11.55294395,-69.50591000
11.55550395,-69.50591000
11.55806395,-69.50591000
11.56062395,-69.50591000
11.56318395,-69.50591000
11.56574395,-69.50591000
11.56830395,-69.50591000
11.57086395,-69.50591000
11.57342395,-69.50591000
11.57598395,-69.50591000
11.57854395,-69.50591000
11.58110395,-69.50591000
11.58366395,-69.50591000
11.58622395,-69.50591000
11.58878395,-69.50591000
11.59134395,-69.50591000
11.59390395,-69.50591000
11.59646395,-69.50591000
11.59902395,-69.50591000
11.60158395,-69.50591000
11.60414395,-69.50591000
11.60670395,-69.50591000
11.60926395,-69.50591000
11.61182395,-69.50591000
11.61438395,-69.50591000
11.61694395,-69.50591000
11.61950395,-69.50591000
11.62206395,-69.50591000
11.62462395,-69.50591000
11.62718395,-69.50591000
11.62974395,-69.50591000
11.63230395,-69.50591000
11.63486395,-69.50591000
11.63742395,-69.50591000
11.63998395,-69.50591000
11.64254395,-69.50591000
11.64510395,-69.50591000
11.64766395,-65.03493000
11.65022395,-69.50591000
11.65278395,-69.50591000
11.65534395,-69.50591000
11.65790395,-69.50591000
11.66046395,-65.03493000
11.66302395,-65.03493000
11.66558395,-69.50591000
11.66814395,-65.03493000
11.67070395,-69.50591000
11.67326395,-65.03493000
11.67582395,-69.50591000
11.67838395,-65.03493000
11.68094395,-65.03493000
11.68350395,-69.50591000
11.68606395,-65.03493000
11.68862395,-65.03493000
11.69118395,-65.03493000
11.69374395,-69.50591000
11.69630395,-65.03493000
11.69886395,-65.03493000
11.70142395,-65.03493000
11.70398395,-65.03493000
11.70654395,-65.03493000
11.70910395,-65.03493000
11.71166395,-65.03493000
11.71422395,-65.03493000
11.71678395,-65.03493000
11.71934395,-65.03493000
11.72190395,-65.03493000
11.72446395,-65.03493000
11.72702395,-65.03493000
11.72958395,-65.03493000
11.73214395,-65.03493000
11.73470395,-65.03493000
11.73726395,-65.03493000
11.73982395,-65.03493000
11.74238395,-65.03493000
11.74494395,-65.03493000
11.74750395,-65.03493000
11.75006395,-65.03493000
11.75262395,-65.03493000
11.75518395,-65.03493000
11.75774395,-65.03493000
11.76030395,-65.03493000
11.76286395,-65.03493000
11.76542395,-65.03493000
11.76798395,-65.03493000
11.77054395,-65.03493000
11.77310395,-65.03493000
11.77566395,-65.03493000
11.77822395,-65.03493000
11.78078395,-65.03493000
11.78334395,-65.03493000
11.78590395,-65.03493000
11.78846395,-65.03493000
11.79102395,-65.03493000
11.79358395,-65.03493000
11.79614395,-65.03493000
11.79870395,-65.03493000
11.80126395,-65.03493000
11.80382395,-65.03493000
11.80638395,-69.50591000
11.80894395,-65.03493000
11.81150395,-65.03493000
11.81406395,-65.03493000
11.81662395,-69.50591000
11.81918395,-65.03493000
11.82174395,-65.03493000
11.82430395,-69.50591000
11.82686395,-69.50591000
11.82942395,-65.03493000
11.83198395,-65.03493000
11.83454395,-65.03493000
11.83710395,-65.03493000
11.83966395,-69.50591000
11.84222395,-69.50591000
11.84478395,-65.03493000
11.84734395,-65.03493000
11.84990395,-69.50591000
11.85246395,-69.50591000
11.85502395,-65.03493000
11.85758395,-69.50591000
11.86014395,-69.50591000
11.86270395,-69.50591000
11.86526395,-69.50591000
11.86782395,-69.50591000
11.87038395,-69.50591000
11.87294395,-69.50591000
11.87550395,-69.50591000
11.87806395,-69.50591000
11.88062394,-69.50591000
11.88318394,-69.50591000
11.88574394,-69.50591000
11.88830394,-69.50591000
11.89086394,-69.50591000
11.89342394,-69.50591000
11.89598394,-69.50591000
11.89854394,-69.50591000
11.90110394,-69.50591000
11.90366394,-69.50591000
11.90622394,-69.50591000
11.90878394,-69.50591000
11.91134394,-69.50591000
11.91390394,-69.50591000
11.91646394,-69.50591000
11.91902394,-69.50591000
11.92158394,-69.50591000
11.92414394,-69.50591000
11.92670394,-69.50591000
11.92926394,-69.50591000
11.93182394,-69.50591000
11.93438394,-69.50591000
11.93694394,-69.50591000
11.93950394,-69.50591000
11.94206394,-69.50591000
11.94462394,-69.50591000
11.94718394,-69.50591000
11.94974394,-69.50591000
11.95230394,-69.50591000
11.95486394,-69.50591000
11.95742394,-69.50591000
11.95998394,-69.50591000
11.96254394,-69.50591000
11.96510394,-69.50591000
11.96766394,-69.50591000
11.97022394,-69.50591000
11.97278394,-69.50591000
11.97534394,-69.50591000
11.97790394,-69.50591000
11.98046394,-69.50591000
11.98302394,-69.50591000
11.98558394,-69.50591000
11.98814394,-69.50591000
11.99070394,-69.50591000
11.99326394,-69.50591000
11.99582394,-69.50591000
11.99838394,-69.50591000
12.00094394,-69.50591000
12.00350394,-69.50591000
12.00606394,-69.50591000
12.00862394,-69.50591000
12.01118394,-69.50591000
12.01374394,-69.50591000
12.01630394,-69.50591000
12.01886394,-69.50591000
12.02142394,-69.50591000
12.02398394,-69.50591000
12.02654394,-69.50591000
12.02910394,-69.50591000
12.03166394,-69.50591000
12.03422394,-69.50591000
12.03678394,-69.50591000
12.03934394,-69.50591000
12.04190394,-69.50591000
12.04446394,-69.50591000
12.04702394,-69.50591000
12.04958394,-69.50591000
12.05214394,-69.50591000
12.05470394,-69.50591000
12.05726394,-69.50591000
12.05982394,-69.50591000
12.06238394,-69.50591000
12.06494394,-69.50591000
12.06750394,-69.50591000
12.07006394,-69.50591000
12.07262394,-69.50591000
12.07518394,-69.50591000
12.07774394,-69.50591000
12.08030394,-69.50591000
12.08286394,-69.50591000
12.08542394,-69.50591000
12.08798394,-69.50591000
12.09054394,-69.50591000
12.09310394,-69.50591000
12.09566394,-69.50591000
12.09822394,-69.50591000
12.10078394,-69.50591000
12.10334394,-69.50591000
12.10590394,-69.50591000
12.10846394,-69.50591000
12.11102394,-69.50591000
12.11358394,-69.50591000
12.11614394,-69.50591000
12.11870394,-69.50591000
12.12126394,-69.50591000
12.12382394,-69.50591000
12.12638394,-69.50591000
12.12894394,-69.50591000
12.13150394,-69.50591000
12.13406394,-69.50591000
12.13662394,-69.50591000
12.13918394,-69.50591000
12.14174394,-69.50591000
12.14430394,-69.50591000
12.14686394,-69.50591000
12.14942394,-69.50591000
12.15198394,-69.50591000
12.15454394,-69.50591000
12.15710394,-69.50591000
12.15966394,-69.50591000
12.16222394,-69.50591000
12.16478394,-69.50591000
12.16734394,-69.50591000
12.16990394,-69.50591000
12.17246394,-69.50591000
12.17502394,-65.03493000
12.17758394,-69.50591000
12.18014394,-69.50591000
12.18270394,-69.50591000
12.18526394,-69.50591000
12.18782394,-69.50591000
12.19038394,-69.50591000
12.19294394,-65.03493000
12.19550394,-69.50591000
12.19806394,-69.50591000
12.20062394,-69.50591000
12.20318394,-65.03493000
12.20574394,-65.03493000
12.20830394,-69.50591000
12.21086394,-69.50591000
12.21342394,-69.50591000
12.21598394,-69.50591000
12.21854394,-65.03493000
12.22110394,-69.50591000
12.22366394,-69.50591000
12.22622394,-65.03493000
12.22878394,-69.50591000
12.23134394,-69.50591000
12.23390394,-69.50591000
12.23646394,-69.50591000
12.23902394,-69.50591000
12.24158394,-69.50591000
12.24414394,-69.50591000
12.24670394,-69.50591000
12.24926394,-69.50591000
12.25182394,-69.50591000
12.25438394,-69.50591000
12.25694394,-69.50591000
12.25950394,-69.50591000
12.26206394,-69.50591000
12.26462394,-69.50591000
12.26718394,-69.50591000
12.26974394,-69.50591000
12.27230394,-69.50591000
12.27486394,-69.50591000
12.27742394,-69.50591000
12.27998394,-69.50591000
12.28254394,-69.50591000
12.28510394,-69.50591000
12.28766394,-69.50591000
12.29022394,-69.50591000
12.29278394,-69.50591000
12.29534394,-69.50591000
12.29790394,-69.50591000
12.30046394,-69.50591000
12.30302394,-69.50591000
12.30558394,-69.50591000
12.30814394,-69.50591000
12.31070394,-65.03493000
12.31326394,-69.50591000
12.31582394,-69.50591000
12.31838394,-69.50591000
12.32094394,-69.50591000
12.32350394,-69.50591000
12.32606394,-69.50591000
12.32862394,-69.50591000
12.33118394,-69.50591000
12.33374394,-69.50591000
12.33630394,-69.50591000
12.33886394,-69.50591000
12.34142394,-69.50591000
12.34398394,-69.50591000
12.34654394,-69.50591000
12.34910394,-69.50591000
12.35166394,-69.50591000
12.35422394,-69.50591000
12.35678394,-69.50591000
12.35934394,-69.50591000
12.36190394,-69.50591000
12.36446394,-69.50591000
12.36702394,-69.50591000
12.36958394,-69.50591000
12.37214394,-69.50591000
12.37470394,-69.50591000
12.37726394,-69.50591000
12.37982394,-69.50591000
12.38238394,-69.50591000
12.38494394,-69.50591000
12.38750394,-69.50591000
12.39006394,-69.50591000
12.39262394,-69.50591000
12.39518394,-69.50591000
12.39774394,-69.50591000
12.40030394,-69.50591000
12.40286394,-69.50591000
12.40542394,-69.50591000
12.40798394,-69.50591000
12.41054394,-69.50591000
12.41310394,-69.50591000
12.41566394,-69.50591000
12.41822394,-69.50591000
12.42078394,-69.50591000
12.42334394,-69.50591000
12.42590394,-69.50591000
12.42846394,-69.50591000
12.43102394,-69.50591000
12.43358394,-69.50591000
12.43614394,-69.50591000
12.43870394,-69.50591000
12.44126394,-69.50591000
12.44382394,-69.50591000
12.44638394,-69.50591000
12.44894394,-69.50591000
12.45150394,-69.50591000
12.45406394,-69.50591000
12.45662394,-69.50591000
12.45918394,-69.50591000
12.46174394,-69.50591000
12.46430394,-69.50591000
12.46686394,-69.50591000
12.46942394,-69.50591000
12.47198394,-69.50591000
12.47454394,-69.50591000
12.47710394,-69.50591000
12.47966394,-69.50591000
12.48222394,-69.50591000
12.48478394,-69.50591000
12.48734394,-69.50591000
12.48990394,-69.50591000
12.49246394,-69.50591000
12.49502394,-69.50591000
12.49758394,-69.50591000
12.50014394,-69.50591000
12.50270394,-69.50591000
12.50526394,-69.50591000
12.50782394,-69.50591000
12.51038394,-69.50591000
12.51294394,-69.50591000
12.51550394,-69.50591000
12.51806394,-69.50591000
12.52062394,-69.50591000
12.52318394,-69.50591000
12.52574394,-69.50591000
12.52830394,-69.50591000
12.53086394,-69.50591000
12.53342394,-69.50591000
12.53598394,-69.50591000
12.53854394,-69.50591000
12.54110394,-69.50591000
12.54366394,-69.50591000
12.54622394,-69.50591000
12.54878394,-69.50591000
12.55134394,-69.50591000
12.55390394,-69.50591000
12.55646394,-69.50591000
12.55902394,-69.50591000
12.56158394,-69.50591000
12.56414394,-69.50591000
12.56670394,-69.50591000
12.56926394,-69.50591000
12.57182394,-69.50591000
12.57438394,-73.99212000
12.57694394,-69.50591000
12.57950394,-69.50591000
12.58206394,-69.50591000
12.58462394,-69.50591000
12.58718394,-69.50591000
12.58974394,-69.50591000
12.59230394,-69.50591000
12.59486394,-69.50591000
12.59742394,-69.50591000
12.59998394,-69.50591000
12.60254394,-69.50591000
12.60510394,-69.50591000
12.60766394,-69.50591000
12.61022394,-69.50591000
12.61278394,-69.50591000
12.61534394,-69.50591000
12.61790394,-69.50591000
12.62046394,-69.50591000
12.62302394,-69.50591000
12.62558394,-69.50591000
12.62814394,-69.50591000
12.63070394,-69.50591000
12.63326394,-69.50591000
12.63582394,-69.50591000
12.63838394,-69.50591000
12.64094394,-69.50591000
12.64350394,-69.50591000
12.64606394,-69.50591000
12.64862394,-69.50591000
12.65118394,-69.50591000
12.65374394,-69.50591000
12.65630394,-69.50591000
12.65886394,-69.50591000
12.66142394,-69.50591000
12.66398394,-69.50591000
12.66654394,-69.50591000
12.66910394,-69.50591000
12.67166394,-69.50591000
12.67422394,-69.50591000
12.67678394,-69.50591000
12.67934394,-69.50591000
12.68190394,-69.50591000
12.68446394,-69.50591000
12.68702394,-69.50591000
12.68958394,-69.50591000
12.69214394,-69.50591000
12.69470394,-69.50591000
12.69726394,-69.50591000
12.69982394,-69.50591000
12.70238394,-69.50591000
12.70494394,-69.50591000
12.70750394,-69.50591000
12.71006394,-69.50591000
12.71262394,-69.50591000
12.71518394,-69.50591000
12.71774394,-69.50591000
12.72030394,-69.50591000
12.72286394,-69.50591000
12.72542394,-69.50591000
12.72798394,-69.50591000
12.73054394,-69.50591000
12.73310394,-69.50591000
12.73566394,-69.50591000
12.73822394,-69.50591000
12.74078394,-69.50591000
12.74334394,-69.50591000
12.74590394,-69.50591000
12.74846394,-69.50591000
12.75102394,-69.50591000
12.75358394,-69.50591000
12.75614394,-69.50591000
12.75870394,-69.50591000
12.76126394,-69.50591000
12.76382394,-69.50591000
12.76638394,-69.50591000
12.76894394,-69.50591000
12.77150394,-69.50591000
12.77406394,-69.50591000
12.77662394,-69.50591000
12.77918394,-69.50591000
12.78174394,-69.50591000
12.78430394,-69.50591000
12.78686394,-69.50591000
12.78942394,-69.50591000
12.79198394,-69.50591000
12.79454394,-69.50591000
12.79710394,-69.50591000
12.79966394,-69.50591000
12.80222394,-69.50591000
12.80478394,-69.50591000
12.80734394,-69.50591000
12.80990394,-69.50591000
12.81246394,-69.50591000
12.81502394,-69.50591000
12.81758394,-69.50591000
12.82014394,-69.50591000
12.82270394,-69.50591000
12.82526394,-69.50591000
12.82782394,-69.50591000
12.83038394,-69.50591000
12.83294394,-69.50591000
12.83550394,-69.50591000
12.83806394,-69.50591000
12.84062394,-69.50591000
12.84318394,-69.50591000
12.84574394,-69.50591000
12.84830394,-69.50591000
12.85086394,-69.50591000
12.85342394,-69.50591000
12.85598394,-69.50591000
12.85854394,-69.50591000
12.86110394,-69.50591000
12.86366394,-69.50591000
12.86622394,-69.50591000
12.86878394,-69.50591000
12.87134394,-69.50591000
12.87390394,-69.50591000
12.87646394,-69.50591000
12.87902394,-69.50591000
12.88158394,-69.50591000
12.88414394,-69.50591000
12.88670394,-69.50591000
12.88926394,-69.50591000
12.89182394,-69.50591000
12.89438394,-69.50591000
12.89694394,-69.50591000
12.89950394,-69.50591000
12.90206394,-69.50591000
12.90462394,-69.50591000
12.90718394,-69.50591000
12.90974394,-69.50591000
12.91230394,-69.50591000
12.91486394,-69.50591000
12.91742394,-69.50591000
12.91998394,-69.50591000
12.92254394,-69.50591000
12.92510394,-69.50591000
12.92766394,-69.50591000
12.93022394,-69.50591000
12.93278394,-69.50591000
12.93534394,-69.50591000
12.93790394,-69.50591000
12.94046394,-69.50591000
12.94302394,-69.50591000
12.94558394,-69.50591000
12.94814394,-69.50591000
12.95070394,-69.50591000
12.95326394,-69.50591000
12.95582394,-69.50591000
12.95838394,-69.50591000
12.96094394,-69.50591000
12.96350394,-69.50591000
12.96606394,-69.50591000
12.96862394,-69.50591000
12.97118394,-69.50591000
12.97374394,-69.50591000
12.97630394,-69.50591000
12.97886394,-69.50591000
12.98142394,-69.50591000
12.98398394,-69.50591000
12.98654394,-69.50591000
12.98910394,-69.50591000
12.99166394,-69.50591000
12.99422394,-69.50591000
12.99678394,-69.50591000
12.99934394,-69.50591000
13.00190394,-69.50591000
13.00446394,-69.50591000
13.00702394,-69.50591000
13.00958394,-69.50591000
13.01214394,-69.50591000
13.01470394,-69.50591000
13.01726394,-69.50591000
13.01982394,-69.50591000
13.02238394,-69.50591000
13.02494394,-69.50591000
13.02750394,-69.50591000
13.03006394,-69.50591000
13.03262394,-69.50591000
13.03518394,-69.50591000
13.03774394,-69.50591000
13.04030394,-69.50591000
13.04286394,-69.50591000
13.04542394,-69.50591000
13.04798394,-69.50591000
13.05054394,-69.50591000
13.05310394,-69.50591000
13.05566394,-69.50591000
13.05822394,-69.50591000
13.06078394,-69.50591000
13.06334394,-69.50591000
13.06590394,-69.50591000
13.06846394,-69.50591000
13.07102394,-69.50591000
13.07358394,-69.50591000
13.07614394,-69.50591000
13.07870394,-69.50591000
13.08126394,-69.50591000
13.08382394,-69.50591000
13.08638394,-69.50591000
13.08894394,-69.50591000
13.09150394,-69.50591000
13.09406394,-69.50591000
13.09662394,-69.50591000
13.09918394,-69.50591000
13.10174394,-69.50591000
13.10430394,-69.50591000
13.10686394,-69.50591000
13.10942394,-69.50591000
13.11198394,-69.50591000
13.11454394,-69.50591000
13.11710394,-69.50591000
13.11966394,-69.50591000
13.12222394,-69.50591000
13.12478394,-69.50591000
13.12734394,-69.50591000
13.12990394,-69.50591000
13.13246394,-69.50591000
13.13502394,-69.50591000
13.13758394,-69.50591000
13.14014394,-69.50591000
13.14270394,-69.50591000
13.14526394,-69.50591000
13.14782394,-69.50591000
13.15038394,-69.50591000
13.15294394,-69.50591000
13.15550394,-69.50591000
13.15806394,-69.50591000
13.16062394,-69.50591000
13.16318394,-69.50591000
13.16574394,-69.50591000
13.16830394,-69.50591000
13.17086394,-69.50591000
13.17342394,-69.50591000
13.17598394,-69.50591000
13.17854394,-69.50591000
13.18110394,-69.50591000
13.18366394,-69.50591000
13.18622394,-69.50591000
13.18878394,-69.50591000
13.19134394,-69.50591000
13.19390394,-69.50591000
13.19646394,-69.50591000
13.19902394,-69.50591000
13.20158394,-69.50591000
13.20414394,-69.50591000
13.20670394,-69.50591000
13.20926394,-69.50591000
13.21182394,-69.50591000
13.21438394,-69.50591000
13.21694394,-69.50591000
13.21950394,-69.50591000
13.22206394,-69.50591000
13.22462394,-69.50591000
13.22718394,-73.99212000
13.22974394,-69.50591000
13.23230394,-69.50591000
13.23486394,-69.50591000
13.23742394,-73.99212000
13.23998394,-69.50591000
13.24254394,-69.50591000
13.24510394,-69.50591000
13.24766394,-69.50591000
13.25022394,-69.50591000
13.25278394,-69.50591000
13.25534394,-69.50591000
13.25790394,-69.50591000
13.26046394,-69.50591000
13.26302394,-73.99212000
13.26558394,-69.50591000
13.26814394,-69.50591000
13.27070394,-69.50591000
13.27326394,-69.50591000
13.27582394,-69.50591000
13.27838394,-69.50591000
13.28094394,-69.50591000
13.28350394,-69.50591000
13.28606394,-69.50591000
13.28862394,-69.50591000
13.29118394,-69.50591000
13.29374394,-69.50591000
13.29630394,-69.50591000
13.29886394,-69.50591000
13.30142394,-69.50591000
13.30398394,-69.50591000
13.30654394,-69.50591000
13.30910394,-69.50591000
13.31166394,-69.50591000
13.31422394,-69.50591000
13.31678394,-69.50591000
13.31934394,-69.50591000
13.32190394,-69.50591000
13.32446394,-69.50591000
13.32702394,-69.50591000
13.32958394,-69.50591000
13.33214394,-69.50591000
13.33470394,-69.50591000
13.33726394,-69.50591000
13.33982394,-69.50591000
13.34238394,-69.50591000
13.34494394,-69.50591000
13.34750394,-69.50591000
13.35006394,-69.50591000
13.35262394,-69.50591000
13.35518394,-69.50591000
13.35774394,-69.50591000
13.36030394,-69.50591000
13.36286394,-69.50591000
13.36542394,-69.50591000
13.36798394,-69.50591000
13.37054394,-69.50591000
13.37310394,-69.50591000
13.37566394,-69.50591000
13.37822394,-69.50591000
13.38078394,-69.50591000
13.38334394,-69.50591000
13.38590394,-69.50591000
13.38846394,-69.50591000
13.39102394,-69.50591000
13.39358394,-69.50591000
13.39614394,-69.50591000
13.39870394,-69.50591000
13.40126394,-69.50591000
13.40382394,-69.50591000
13.40638394,-69.50591000
13.40894394,-73.99212000
13.41150394,-69.50591000
13.41406394,-69.50591000
13.41662394,-69.50591000
13.41918394,-69.50591000
13.42174394,-69.50591000
13.42430394,-69.50591000
13.42686394,-69.50591000
13.42942394,-69.50591000
13.43198394,-69.50591000
13.43454394,-69.50591000
13.43710394,-69.50591000
13.43966394,-69.50591000
13.44222394,-69.50591000
13.44478394,-69.50591000
13.44734394,-69.50591000
13.44990394,-73.99212000
13.45246394,-69.50591000
13.45502394,-69.50591000
13.45758394,-69.50591000
13.46014394,-69.50591000
13.46270394,-69.50591000
13.46526394,-69.50591000
13.46782394,-69.50591000
13.47038394,-69.50591000
13.47294394,-73.99212000
13.47550394,-69.50591000
13.47806394,-69.50591000
13.48062394,-69.50591000
13.48318394,-69.50591000
13.48574394,-69.50591000
13.48830394,-69.50591000
13.49086394,-73.99212000
13.49342394,-73.99212000
13.49598394,-69.50591000
13.49854394,-69.50591000
13.50110394,-69.50591000
13.50366394,-69.50591000
13.50622394,-69.50591000
13.50878394,-73.99212000
13.51134394,-69.50591000
13.51390394,-73.99212000
13.51646394,-69.50591000
13.51902394,-69.50591000
13.52158394,-73.99212000
13.52414394,-73.99212000
13.52670393,-69.50591000
13.52926393,-69.50591000
13.53182393,-69.50591000
13.53438393,-69.50591000
13.53694393,-69.50591000
13.53950393,-73.99212000
13.54206393,-73.99212000
13.54462393,-69.50591000
13.54718393,-69.50591000
13.54974393,-69.50591000
13.55230393,-69.50591000
13.55486393,-69.50591000
13.55742393,-69.50591000
13.55998393,-69.50591000
13.56254393,-69.50591000
13.56510393,-69.50591000
13.56766393,-69.50591000
13.57022393,-69.50591000
13.57278393,-73.99212000
13.57534393,-69.50591000
13.57790393,-69.50591000
13.58046393,-69.50591000
13.58302393,-69.50591000
13.58558393,-69.50591000
13.58814393,-69.50591000
13.59070393,-69.50591000
13.59326393,-69.50591000
13.59582393,-69.50591000
13.59838393,-69.50591000
13.60094393,-69.50591000
13.60350393,-69.50591000
13.60606393,-69.50591000
13.60862393,-69.50591000
13.61118393,-69.50591000
13.61374393,-69.50591000
13.61630393,-69.50591000
13.61886393,-69.50591000
13.62142393,-69.50591000
13.62398393,-69.50591000
13.62654393,-69.50591000
13.62910393,-69.50591000
13.63166393,-69.50591000
13.63422393,-69.50591000
13.63678393,-69.50591000
13.63934393,-69.50591000
13.64190393,-69.50591000
13.64446393,-69.50591000
13.64702393,-69.50591000
13.64958393,-69.50591000
13.65214393,-69.50591000
13.65470393,-69.50591000
13.65726393,-69.50591000
13.65982393,-69.50591000
13.66238393,-69.50591000
13.66494393,-69.50591000
13.66750393,-69.50591000
13.67006393,-69.50591000
13.67262393,-69.50591000
13.67518393,-69.50591000
13.67774393,-69.50591000
13.68030393,-69.50591000
13.68286393,-69.50591000
13.68542393,-69.50591000
13.68798393,-69.50591000
13.69054393,-69.50591000
13.69310393,-69.50591000
13.69566393,-69.50591000
13.69822393,-69.50591000
13.70078393,-69.50591000
13.70334393,-69.50591000
13.70590393,-69.50591000
13.70846393,-69.50591000
13.71102393,-69.50591000
13.71358393,-69.50591000
13.71614393,-69.50591000
13.71870393,-69.50591000
13.72126393,-69.50591000
13.72382393,-69.50591000
13.72638393,-69.50591000
13.72894393,-69.50591000
13.73150393,-69.50591000
13.73406393,-69.50591000
13.73662393,-69.50591000
13.73918393,-69.50591000
13.74174393,-69.50591000
13.74430393,-69.50591000
13.74686393,-69.50591000
13.74942393,-69.50591000
13.75198393,-69.50591000
13.75454393,-69.50591000
13.75710393,-69.50591000
13.75966393,-69.50591000
13.76222393,-69.50591000
13.76478393,-69.50591000
13.76734393,-69.50591000
13.76990393,-69.50591000
13.77246393,-69.50591000
13.77502393,-69.50591000
13.77758393,-69.50591000
13.78014393,-69.50591000
13.78270393,-69.50591000
13.78526393,-69.50591000
13.78782393,-69.50591000
13.79038393,-69.50591000
13.79294393,-69.50591000
13.79550393,-69.50591000
13.79806393,-69.50591000
13.80062393,-69.50591000
13.80318393,-69.50591000
13.80574393,-69.50591000
13.80830393,-69.50591000
13.81086393,-69.50591000
13.81342393,-69.50591000
13.81598393,-69.50591000
13.81854393,-69.50591000
13.82110393,-69.50591000
13.82366393,-69.50591000
13.82622393,-69.50591000
13.82878393,-69.50591000
13.83134393,-69.50591000
13.83390393,-69.50591000
13.83646393,-69.50591000
13.83902393,-69.50591000
13.84158393,-69.50591000
13.84414393,-69.50591000
13.84670393,-69.50591000
13.84926393,-69.50591000
13.85182393,-69.50591000
13.85438393,-69.50591000
13.85694393,-69.50591000
13.85950393,-69.50591000
13.86206393,-69.50591000
13.86462393,-69.50591000
13.86718393,-69.50591000
13.86974393,-69.50591000
13.87230393,-69.50591000
13.87486393,-69.50591000
13.87742393,-69.50591000
13.87998393,-69.50591000
13.88254393,-69.50591000
13.88510393,-69.50591000
13.88766393,-69.50591000
13.89022393,-69.50591000
13.89278393,-69.50591000
13.89534393,-69.50591000
13.89790393,-69.50591000
13.90046393,-69.50591000
13.90302393,-69.50591000
13.90558393,-69.50591000
13.90814393,-69.50591000
13.91070393,-69.50591000
13.91326393,-69.50591000
13.91582393,-69.50591000
13.91838393,-69.50591000
13.92094393,-69.50591000
13.92350393,-69.50591000
13.92606393,-69.50591000
13.92862393,-69.50591000
13.93118393,-69.50591000
13.93374393,-69.50591000
13.93630393,-69.50591000
13.93886393,-69.50591000
13.94142393,-69.50591000
13.94398393,-69.50591000
13.94654393,-69.50591000
13.94910393,-69.50591000
13.95166393,-69.50591000
13.95422393,-69.50591000
13.95678393,-69.50591000
13.95934393,-69.50591000
13.96190393,-69.50591000
13.96446393,-69.50591000
13.96702393,-69.50591000
13.96958393,-69.50591000
13.97214393,-69.50591000
13.97470393,-69.50591000
13.97726393,-69.50591000
13.97982393,-69.50591000
13.98238393,-69.50591000
13.98494393,-69.50591000
13.98750393,-69.50591000
13.99006393,-69.50591000
13.99262393,-69.50591000
13.99518393,-69.50591000
13.99774393,-69.50591000
14.00030393,-69.50591000
14.00286393,-69.50591000
14.00542393,-69.50591000
14.00798393,-69.50591000
14.01054393,-65.03493000
14.01310393,-69.50591000
14.01566393,-69.50591000
14.01822393,-69.50591000
14.02078393,-69.50591000
14.02334393,-69.50591000
14.02590393,-69.50591000
14.02846393,-69.50591000
14.03102393,-69.50591000
14.03358393,-69.50591000
14.03614393,-69.50591000
14.03870393,-69.50591000
14.04126393,-69.50591000
14.04382393,-69.50591000
14.04638393,-69.50591000
14.04894393,-65.03493000
14.05150393,-69.50591000
14.05406393,-69.50591000
14.05662393,-69.50591000
14.05918393,-69.50591000
14.06174393,-69.50591000
14.06430393,-69.50591000
14.06686393,-69.50591000
14.06942393,-69.50591000
14.07198393,-69.50591000
14.07454393,-69.50591000
14.07710393,-69.50591000
14.07966393,-69.50591000
14.08222393,-65.03493000
14.08478393,-69.50591000
14.08734393,-69.50591000
14.08990393,-69.50591000
14.09246393,-69.50591000
14.09502393,-65.03493000
14.09758393,-69.50591000
14.10014393,-69.50591000
14.10270393,-69.50591000
14.10526393,-69.50591000
14.10782393,-69.50591000
14.11038393,-69.50591000
14.11294393,-65.03493000
14.11550393,-69.50591000
14.11806393,-69.50591000
14.12062393,-69.50591000
14.12318393,-65.03493000
14.12574393,-69.50591000
14.12830393,-69.50591000
14.13086393,-69.50591000
14.13342393,-69.50591000
14.13598393,-69.50591000
14.13854393,-69.50591000
14.14110393,-69.50591000
14.14366393,-69.50591000
14.14622393,-69.50591000
14.14878393,-69.50591000
14.15134393,-69.50591000
14.15390393,-69.50591000
14.15646393,-69.50591000
14.15902393,-69.50591000
14.16158393,-69.50591000
14.16414393,-69.50591000
14.16670393,-69.50591000
14.16926393,-69.50591000
14.17182393,-69.50591000
14.17438393,-69.50591000
14.17694393,-69.50591000
14.17950393,-69.50591000
14.18206393,-69.50591000
14.18462393,-69.50591000
14.18718393,-69.50591000
14.18974393,-69.50591000
14.19230393,-69.50591000
14.19486393,-69.50591000
14.19742393,-69.50591000
14.19998393,-69.50591000
14.20254393,-69.50591000
14.20510393,-69.50591000
14.20766393,-69.50591000
14.21022393,-69.50591000
14.21278393,-69.50591000
14.21534393,-69.50591000
14.21790393,-69.50591000
14.22046393,-69.50591000
14.22302393,-69.50591000
14.22558393,-69.50591000
14.22814393,-69.50591000
14.23070393,-69.50591000
14.23326393,-69.50591000
14.23582393,-69.50591000
14.23838393,-69.50591000
14.24094393,-69.50591000
14.24350393,-69.50591000
14.24606393,-69.50591000
14.24862393,-69.50591000
14.25118393,-69.50591000
14.25374393,-69.50591000
14.25630393,-69.50591000
14.25886393,-69.50591000
14.26142393,-69.50591000
14.26398393,-69.50591000
14.26654393,-69.50591000
14.26910393,-69.50591000
14.27166393,-69.50591000
14.27422393,-69.50591000
14.27678393,-69.50591000
14.27934393,-69.50591000
14.28190393,-69.50591000
14.28446393,-69.50591000
14.28702393,-69.50591000
14.28958393,-69.50591000
14.29214393,-69.50591000
14.29470393,-69.50591000
14.29726393,-69.50591000
14.29982393,-69.50591000
14.30238393,-69.50591000
14.30494393,-69.50591000
14.30750393,-69.50591000
14.31006393,-69.50591000
14.31262393,-69.50591000
14.31518393,-69.50591000
14.31774393,-69.50591000
14.32030393,-69.50591000
14.32286393,-69.50591000
14.32542393,-69.50591000
14.32798393,-69.50591000
14.33054393,-69.50591000
14.33310393,-69.50591000
14.33566393,-69.50591000
14.33822393,-69.50591000
14.34078393,-69.50591000
14.34334393,-69.50591000
14.34590393,-69.50591000
14.34846393,-69.50591000
14.35102393,-69.50591000
14.35358393,-69.50591000
14.35614393,-69.50591000
14.35870393,-69.50591000
14.36126393,-69.50591000
14.36382393,-69.50591000
14.36638393,-69.50591000
14.36894393,-69.50591000
14.37150393,-69.50591000
14.37406393,-69.50591000
14.37662393,-69.50591000
14.37918393,-69.50591000
14.38174393,-69.50591000
14.38430393,-69.50591000
14.38686393,-69.50591000
14.38942393,-69.50591000
14.39198393,-69.50591000
14.39454393,-69.50591000
14.39710393,-69.50591000
14.39966393,-69.50591000
14.40222393,-69.50591000
14.40478393,-69.50591000
14.40734393,-69.50591000
14.40990393,-69.50591000
14.41246393,-69.50591000
14.41502393,-69.50591000
14.41758393,-69.50591000
14.42014393,-69.50591000
14.42270393,-69.50591000
14.42526393,-69.50591000
14.42782393,-69.50591000
14.43038393,-69.50591000
14.43294393,-69.50591000
14.43550393,-69.50591000
14.43806393,-69.50591000
14.44062393,-69.50591000
14.44318393,-69.50591000
14.44574393,-69.50591000
14.44830393,-69.50591000
14.45086393,-69.50591000
14.45342393,-69.50591000
14.45598393,-69.50591000
14.45854393,-69.50591000
14.46110393,-69.50591000
14.46366393,-69.50591000
14.46622393,-69.50591000
14.46878393,-69.50591000
14.47134393,-69.50591000
14.47390393,-69.50591000
14.47646393,-69.50591000
14.47902393,-69.50591000
14.48158393,-69.50591000
14.48414393,-69.50591000
14.48670393,-69.50591000
14.48926393,-69.50591000
14.49182393,-69.50591000
14.49438393,-69.50591000
14.49694393,-69.50591000
14.49950393,-69.50591000
14.50206393,-69.50591000
14.50462393,-69.50591000
14.50718393,-69.50591000
14.50974393,-69.50591000
14.51230393,-69.50591000
14.51486393,-69.50591000
14.51742393,-69.50591000
14.51998393,-69.50591000
14.52254393,-69.50591000
14.52510393,-69.50591000
14.52766393,-69.50591000
14.53022393,-69.50591000
14.53278393,-69.50591000
14.53534393,-69.50591000
14.53790393,-69.50591000
14.54046393,-69.50591000
14.54302393,-65.03493000
14.54558393,-69.50591000
14.54814393,-69.50591000
14.55070393,-69.50591000
14.55326393,-65.03493000
14.55582393,-69.50591000
14.55838393,-65.03493000
14.56094393,-69.50591000
14.56350393,-69.50591000
14.56606393,-69.50591000
14.56862393,-69.50591000
14.57118393,-69.50591000
14.57374393,-69.50591000
14.57630393,-69.50591000
14.57886393,-69.50591000
14.58142393,-69.50591000
14.58398393,-69.50591000
14.58654393,-69.50591000
14.58910393,-69.50591000
14.59166393,-69.50591000
14.59422393,-65.03493000
14.59678393,-69.50591000
14.59934393,-69.50591000
14.60190393,-69.50591000
14.60446393,-69.50591000
14.60702393,-69.50591000
14.60958393,-65.03493000
14.61214393,-69.50591000
14.61470393,-69.50591000
14.61726393,-69.50591000
14.61982393,-69.50591000
14.62238393,-65.03493000
14.62494393,-69.50591000
14.62750393,-69.50591000
14.63006393,-69.50591000
14.63262393,-69.50591000
14.63518393,-69.50591000
14.63774393,-69.50591000
14.64030393,-65.03493000
14.64286393,-69.50591000
14.64542393,-69.50591000
14.64798393,-69.50591000
14.65054393,-69.50591000
14.65310393,-69.50591000
14.65566393,-69.50591000
14.65822393,-69.50591000
14.66078393,-69.50591000
14.66334393,-69.50591000
14.66590393,-65.03493000
14.66846393,-69.50591000
14.67102393,-69.50591000
14.67358393,-69.50591000
14.67614393,-69.50591000
14.67870393,-69.50591000
14.68126393,-69.50591000
14.68382393,-69.50591000
14.68638393,-69.50591000
14.68894393,-69.50591000
14.69150393,-69.50591000
14.69406393,-69.50591000
14.69662393,-69.50591000
14.69918393,-69.50591000
14.70174393,-69.50591000
14.70430393,-69.50591000
14.70686393,-69.50591000
14.70942393,-69.50591000
14.71198393,-69.50591000
14.71454393,-69.50591000
14.71710393,-69.50591000
14.71966393,-69.50591000
14.72222393,-69.50591000
14.72478393,-69.50591000
14.72734393,-69.50591000
14.72990393,-69.50591000
14.73246393,-69.50591000
14.73502393,-69.50591000
14.73758393,-69.50591000
14.74014393,-69.50591000
14.74270393,-69.50591000
14.74526393,-69.50591000
14.74782393,-69.50591000
14.75038393,-69.50591000
14.75294393,-69.50591000
14.75550393,-69.50591000
14.75806393,-69.50591000
14.76062393,-69.50591000
14.76318393,-69.50591000
14.76574393,-69.50591000
14.76830393,-69.50591000
14.77086393,-69.50591000
14.77342393,-69.50591000
14.77598393,-69.50591000
14.77854393,-69.50591000
14.78110393,-69.50591000
14.78366393,-69.50591000
14.78622393,-69.50591000
14.78878393,-69.50591000
14.79134393,-69.50591000
14.79390393,-69.50591000
14.79646393,-69.50591000
14.79902393,-69.50591000
14.80158393,-69.50591000
14.80414393,-69.50591000
14.80670393,-69.50591000
14.80926393,-69.50591000
14.81182393,-69.50591000
14.81438393,-69.50591000
14.81694393,-69.50591000
14.81950393,-69.50591000
14.82206393,-69.50591000
14.82462393,-69.50591000
14.82718393,-69.50591000
14.82974393,-69.50591000
14.83230393,-69.50591000
14.83486393,-69.50591000
14.83742393,-69.50591000
14.83998393,-69.50591000
14.84254393,-69.50591000
14.84510393,-69.50591000
14.84766393,-69.50591000
14.85022393,-69.50591000
14.85278393,-69.50591000
14.85534393,-69.50591000
14.85790393,-69.50591000
14.86046393,-69.50591000
14.86302393,-69.50591000
14.86558393,-69.50591000
14.86814393,-69.50591000
14.87070393,-69.50591000
14.87326393,-69.50591000
14.87582393,-69.50591000
14.87838393,-69.50591000
14.88094393,-69.50591000
14.88350393,-69.50591000
14.88606393,-69.50591000
14.88862393,-69.50591000
14.89118393,-69.50591000
14.89374393,-69.50591000
14.89630393,-69.50591000
14.89886393,-69.50591000
14.90142393,-69.50591000
14.90398393,-69.50591000
14.90654393,-69.50591000
14.90910393,-69.50591000
14.91166393,-69.50591000
14.91422393,-69.50591000
14.91678393,-69.50591000
14.91934393,-69.50591000
14.92190393,-69.50591000
14.92446393,-69.50591000
14.92702393,-69.50591000
14.92958393,-69.50591000
14.93214393,-69.50591000
14.93470393,-69.50591000
14.93726393,-69.50591000
14.93982393,-69.50591000
14.94238393,-69.50591000
14.94494393,-69.50591000
14.94750393,-69.50591000
14.95006393,-69.50591000
14.95262393,-69.50591000
14.95518393,-69.50591000
14.95774393,-69.50591000
14.96030393,-69.50591000
14.96286393,-69.50591000
14.96542393,-69.50591000
14.96798393,-69.50591000
14.97054393,-69.50591000
14.97310393,-69.50591000
14.97566393,-69.50591000
14.97822393,-69.50591000
14.98078393,-69.50591000
14.98334393,-69.50591000
14.98590393,-69.50591000
14.98846393,-69.50591000
14.99102393,-69.50591000
14.99358393,-69.50591000
14.99614393,-69.50591000
14.99870393,-69.50591000
15.00126393,-69.50591000
15.00382393,-69.50591000
15.00638393,-69.50591000
15.00894393,-69.50591000
15.01150393,-69.50591000
15.01406393,-69.50591000
15.01662393,-69.50591000
15.01918393,-69.50591000
15.02174393,-69.50591000
15.02430393,-69.50591000
15.02686393,-69.50591000
15.02942393,-69.50591000
15.03198393,-69.50591000
15.03454393,-69.50591000
15.03710393,-69.50591000
15.03966393,-69.50591000
15.04222393,-69.50591000
15.04478393,-69.50591000
15.04734393,-69.50591000
15.04990393,-69.50591000
15.05246393,-69.50591000
15.05502393,-69.50591000
15.05758393,-69.50591000
15.06014393,-69.50591000
15.06270393,-69.50591000
15.06526393,-69.50591000
15.06782393,-69.50591000
15.07038393,-69.50591000
15.07294393,-69.50591000
15.07550393,-69.50591000
15.07806393,-69.50591000
15.08062393,-69.50591000
15.08318393,-69.50591000
15.08574393,-69.50591000
15.08830393,-69.50591000
15.09086393,-69.50591000
15.09342393,-69.50591000
15.09598393,-69.50591000
15.09854393,-69.50591000
15.10110393,-69.50591000
15.10366393,-69.50591000
15.10622393,-69.50591000
15.10878393,-69.50591000
15.11134393,-69.50591000
15.11390393,-69.50591000
15.11646393,-69.50591000
15.11902393,-69.50591000
15.12158393,-69.50591000
15.12414393,-69.50591000
15.12670393,-69.50591000
15.12926393,-69.50591000
15.13182393,-69.50591000
15.13438393,-69.50591000
15.13694393,-69.50591000
15.13950393,-69.50591000
15.14206393,-69.50591000
15.14462393,-69.50591000
15.14718393,-69.50591000
15.14974393,-69.50591000
15.15230393,-69.50591000
15.15486393,-69.50591000
15.15742393,-69.50591000
15.15998393,-69.50591000
15.16254393,-69.50591000
15.16510393,-69.50591000
15.16766393,-69.50591000
15.17022392,-69.50591000
15.17278392,-69.50591000
15.17534392,-69.50591000
15.17790392,-69.50591000
15.18046392,-69.50591000
15.18302392,-69.50591000
15.18558392,-69.50591000
15.18814392,-69.50591000
15.19070392,-69.50591000
15.19326392,-69.50591000
15.19582392,-69.50591000
15.19838392,-69.50591000
15.20094392,-69.50591000
15.20350392,-69.50591000
15.20606392,-69.50591000
15.20862392,-69.50591000
15.21118392,-69.50591000
15.21374392,-69.50591000
15.21630392,-69.50591000
15.21886392,-69.50591000
15.22142392,-69.50591000
15.22398392,-69.50591000
15.22654392,-69.50591000
15.22910392,-69.50591000
15.23166392,-69.50591000
15.23422392,-69.50591000
15.23678392,-69.50591000
15.23934392,-69.50591000
15.24190392,-69.50591000
15.24446392,-69.50591000
15.24702392,-69.50591000
15.24958392,-69.50591000
15.25214392,-69.50591000
15.25470392,-69.50591000
15.25726392,-69.50591000
15.25982392,-69.50591000
15.26238392,-69.50591000
15.26494392,-69.50591000
15.26750392,-69.50591000
15.27006392,-69.50591000
15.27262392,-69.50591000
15.27518392,-69.50591000
15.27774392,-69.50591000
15.28030392,-69.50591000
15.28286392,-69.50591000
15.28542392,-69.50591000
15.28798392,-69.50591000
15.29054392,-69.50591000
15.29310392,-73.99212000
15.29566392,-69.50591000
15.29822392,-69.50591000
15.30078392,-69.50591000
15.30334392,-69.50591000
15.30590392,-69.50591000
15.30846392,-69.50591000
15.31102392,-73.99212000
15.31358392,-69.50591000
15.31614392,-69.50591000
15.31870392,-69.50591000
15.32126392,-69.50591000
15.32382392,-69.50591000
15.32638392,-69.50591000
15.32894392,-69.50591000
15.33150392,-69.50591000
15.33406392,-69.50591000
15.33662392,-69.50591000
15.33918392,-69.50591000
15.34174392,-69.50591000
15.34430392,-69.50591000
15.34686392,-69.50591000
15.34942392,-69.50591000
15.35198392,-69.50591000
15.35454392,-69.50591000
15.35710392,-69.50591000
15.35966392,-69.50591000
15.36222392,-69.50591000
15.36478392,-69.50591000
15.36734392,-69.50591000
15.36990392,-69.50591000
15.37246392,-69.50591000
15.37502392,-69.50591000
15.37758392,-69.50591000
15.38014392,-69.50591000
15.38270392,-69.50591000
15.38526392,-69.50591000
15.38782392,-69.50591000
15.39038392,-69.50591000
15.39294392,-69.50591000
15.39550392,-69.50591000
15.39806392,-69.50591000
15.40062392,-69.50591000
15.40318392,-69.50591000
15.40574392,-69.50591000
15.40830392,-69.50591000
15.41086392,-69.50591000
15.41342392,-69.50591000
15.41598392,-69.50591000
15.41854392,-69.50591000
15.42110392,-69.50591000
15.42366392,-69.50591000
15.42622392,-69.50591000
15.42878392,-69.50591000
15.43134392,-69.50591000
15.43390392,-69.50591000
15.43646392,-69.50591000
15.43902392,-69.50591000
15.44158392,-69.50591000
15.44414392,-69.50591000
15.44670392,-69.50591000
15.44926392,-69.50591000
15.45182392,-69.50591000
15.45438392,-69.50591000
15.45694392,-69.50591000
15.45950392,-69.50591000
15.46206392,-69.50591000
15.46462392,-69.50591000
15.46718392,-69.50591000
15.46974392,-69.50591000
15.47230392,-69.50591000
15.47486392,-69.50591000
15.47742392,-69.50591000
15.47998392,-69.50591000
15.48254392,-69.50591000
15.48510392,-69.50591000
15.48766392,-69.50591000
15.49022392,-69.50591000
15.49278392,-69.50591000
15.49534392,-69.50591000
15.49790392,-69.50591000
15.50046392,-69.50591000
15.50302392,-69.50591000
15.50558392,-69.50591000
15.50814392,-69.50591000
15.51070392,-69.50591000
15.51326392,-69.50591000
15.51582392,-69.50591000
15.51838392,-69.50591000
15.52094392,-69.50591000
15.52350392,-69.50591000
15.52606392,-69.50591000
15.52862392,-69.50591000
15.53118392,-69.50591000
15.53374392,-69.50591000
15.53630392,-69.50591000
15.53886392,-69.50591000
15.54142392,-69.50591000
15.54398392,-69.50591000
15.54654392,-69.50591000
15.54910392,-69.50591000
15.55166392,-69.50591000
15.55422392,-69.50591000
15.55678392,-69.50591000
15.55934392,-69.50591000
15.56190392,-69.50591000
15.56446392,-69.50591000
15.56702392,-69.50591000
15.56958392,-69.50591000
15.57214392,-69.50591000
15.57470392,-69.50591000
15.57726392,-69.50591000
15.57982392,-69.50591000
15.58238392,-69.50591000
15.58494392,-69.50591000
15.58750392,-69.50591000
15.59006392,-69.50591000
15.59262392,-69.50591000
15.59518392,-69.50591000
15.59774392,-69.50591000
15.60030392,-69.50591000
15.60286392,-69.50591000
15.60542392,-69.50591000
15.60798392,-69.50591000
15.61054392,-69.50591000
15.61310392,-69.50591000
15.61566392,-69.50591000
15.61822392,-69.50591000
15.62078392,-69.50591000
15.62334392,-69.50591000
15.62590392,-69.50591000
15.62846392,-69.50591000
15.63102392,-69.50591000
15.63358392,-69.50591000
15.63614392,-69.50591000
15.63870392,-69.50591000
15.64126392,-69.50591000
15.64382392,-69.50591000
15.64638392,-69.50591000
15.64894392,-69.50591000
15.65150392,-69.50591000
15.65406392,-69.50591000
15.65662392,-69.50591000
15.65918392,-69.50591000
15.66174392,-69.50591000
15.66430392,-69.50591000
15.66686392,-69.50591000
15.66942392,-69.50591000
15.67198392,-69.50591000
15.67454392,-69.50591000
15.67710392,-69.50591000
15.67966392,-69.50591000
15.68222392,-69.50591000
15.68478392,-69.50591000
15.68734392,-69.50591000
15.68990392,-69.50591000
15.69246392,-69.50591000
15.69502392,-69.50591000
15.69758392,-69.50591000
15.70014392,-69.50591000
15.70270392,-69.50591000
15.70526392,-69.50591000
15.70782392,-69.50591000
15.71038392,-69.50591000
15.71294392,-69.50591000
15.71550392,-69.50591000
15.71806392,-69.50591000
15.72062392,-69.50591000
15.72318392,-69.50591000
15.72574392,-69.50591000
15.72830392,-69.50591000
15.73086392,-69.50591000
15.73342392,-69.50591000
15.73598392,-69.50591000
15.73854392,-69.50591000
15.74110392,-69.50591000
15.74366392,-69.50591000
15.74622392,-69.50591000
15.74878392,-69.50591000
15.75134392,-69.50591000
15.75390392,-69.50591000
15.75646392,-69.50591000
15.75902392,-69.50591000
15.76158392,-69.50591000
15.76414392,-69.50591000
15.76670392,-69.50591000
15.76926392,-69.50591000
15.77182392,-69.50591000
15.77438392,-69.50591000
15.77694392,-69.50591000
15.77950392,-69.50591000
15.78206392,-69.50591000
15.78462392,-69.50591000
15.78718392,-69.50591000
15.78974392,-69.50591000
15.79230392,-69.50591000
15.79486392,-69.50591000
15.79742392,-69.50591000
15.79998392,-69.50591000
15.80254392,-69.50591000
15.80510392,-69.50591000
15.80766392,-69.50591000
15.81022392,-69.50591000
15.81278392,-69.50591000
15.81534392,-69.50591000
15.81790392,-69.50591000
15.82046392,-69.50591000
15.82302392,-69.50591000
15.82558392,-69.50591000
15.82814392,-69.50591000
15.83070392,-69.50591000
15.83326392,-69.50591000
15.83582392,-69.50591000
15.83838392,-69.50591000
15.84094392,-69.50591000
15.84350392,-69.50591000
15.84606392,-69.50591000
15.84862392,-69.50591000
15.85118392,-69.50591000
15.85374392,-69.50591000
15.85630392,-69.50591000
15.85886392,-69.50591000
15.86142392,-69.50591000
15.86398392,-69.50591000
15.86654392,-69.50591000
15.86910392,-69.50591000
15.87166392,-69.50591000
15.87422392,-69.50591000
15.87678392,-69.50591000
15.87934392,-69.50591000
15.88190392,-69.50591000
15.88446392,-69.50591000
15.88702392,-69.50591000
15.88958392,-69.50591000
15.89214392,-69.50591000
15.89470392,-69.50591000
15.89726392,-69.50591000
15.89982392,-69.50591000
15.90238392,-69.50591000
15.90494392,-69.50591000
15.90750392,-69.50591000
15.91006392,-69.50591000
15.91262392,-69.50591000
15.91518392,-69.50591000
15.91774392,-69.50591000
15.92030392,-69.50591000
15.92286392,-69.50591000
15.92542392,-69.50591000
15.92798392,-69.50591000
15.93054392,-69.50591000
15.93310392,-69.50591000
15.93566392,-69.50591000
15.93822392,-69.50591000
15.94078392,-69.50591000
15.94334392,-69.50591000
15.94590392,-69.50591000
15.94846392,-69.50591000
15.95102392,-69.50591000
15.95358392,-69.50591000
15.95614392,-69.50591000
15.95870392,-69.50591000
15.96126392,-69.50591000
15.96382392,-69.50591000
15.96638392,-69.50591000
15.96894392,-69.50591000
15.97150392,-69.50591000
15.97406392,-69.50591000
15.97662392,-69.50591000
15.97918392,-69.50591000
15.98174392,-69.50591000
15.98430392,-69.50591000
15.98686392,-69.50591000
15.98942392,-69.50591000
15.99198392,-69.50591000
15.99454392,-69.50591000
15.99710392,-69.50591000
15.99966392,-69.50591000
16.00222392,-69.50591000
16.00478392,-69.50591000
16.00734392,-69.50591000
16.00990392,-69.50591000
16.01246392,-69.50591000
16.01502392,-69.50591000
16.01758392,-69.50591000
16.02014392,-69.50591000
16.02270392,-69.50591000
16.02526392,-69.50591000
16.02782392,-69.50591000
16.03038392,-69.50591000
16.03294392,-69.50591000
16.03550392,-69.50591000
16.03806392,-69.50591000
16.04062392,-69.50591000
16.04318392,-69.50591000
16.04574392,-69.50591000
16.04830392,-69.50591000
16.05086392,-69.50591000
16.05342392,-69.50591000
16.05598392,-69.50591000
16.05854392,-69.50591000
16.06110392,-69.50591000
16.06366392,-69.50591000
16.06622392,-69.50591000
16.06878392,-69.50591000
16.07134392,-69.50591000
16.07390392,-69.50591000
16.07646392,-69.50591000
16.07902392,-69.50591000
16.08158392,-65.03493000
16.08414392,-69.50591000
16.08670392,-65.03493000
16.08926392,-69.50591000
16.09182392,-69.50591000
16.09438392,-69.50591000
16.09694392,-69.50591000
16.09950392,-69.50591000
16.10206392,-69.50591000
16.10462392,-69.50591000
16.10718392,-69.50591000
16.10974392,-69.50591000
16.11230392,-69.50591000
16.11486392,-69.50591000
16.11742392,-65.03493000
16.11998392,-69.50591000
16.12254392,-65.03493000
16.12510392,-69.50591000
16.12766392,-69.50591000
16.13022392,-65.03493000
16.13278392,-69.50591000
16.13534392,-69.50591000
16.13790392,-69.50591000
16.14046392,-69.50591000
16.14302392,-69.50591000
16.14558392,-69.50591000
16.14814392,-69.50591000
16.15070392,-65.03493000
16.15326392,-69.50591000
16.15582392,-69.50591000
16.15838392,-69.50591000
16.16094392,-69.50591000
16.16350392,-69.50591000
16.16606392,-69.50591000
16.16862392,-69.50591000
16.17118392,-65.03493000
16.17374392,-65.03493000
16.17630392,-69.50591000
16.17886392,-69.50591000
16.18142392,-69.50591000
16.18398392,-69.50591000
16.18654392,-69.50591000
16.18910392,-69.50591000
16.19166392,-69.50591000
16.19422392,-69.50591000
16.19678392,-65.03493000
16.19934392,-69.50591000
16.20190392,-69.50591000
16.20446392,-65.03493000
16.20702392,-69.50591000
16.20958392,-69.50591000
16.21214392,-69.50591000
16.21470392,-69.50591000
16.21726392,-65.03493000
16.21982392,-69.50591000
16.22238392,-69.50591000
16.22494392,-65.03493000
16.22750392,-69.50591000
16.23006392,-69.50591000
16.23262392,-69.50591000
16.23518392,-69.50591000
16.23774392,-69.50591000
16.24030392,-69.50591000
16.24286392,-69.50591000
16.24542392,-69.50591000
16.24798392,-69.50591000
16.25054392,-69.50591000
16.25310392,-65.03493000
16.25566392,-69.50591000
16.25822392,-69.50591000
16.26078392,-69.50591000
16.26334392,-69.50591000
16.26590392,-69.50591000
16.26846392,-69.50591000
16.27102392,-69.50591000
16.27358392,-69.50591000
16.27614392,-69.50591000
16.27870392,-69.50591000
16.28126392,-69.50591000
16.28382392,-69.50591000
16.28638392,-69.50591000
16.28894392,-69.50591000
16.29150392,-69.50591000
16.29406392,-69.50591000
16.29662392,-69.50591000
16.29918392,-69.50591000
16.30174392,-69.50591000
16.30430392,-69.50591000
16.30686392,-69.50591000
16.30942392,-69.50591000
16.31198392,-69.50591000
16.31454392,-69.50591000
16.31710392,-69.50591000
16.31966392,-69.50591000
16.32222392,-69.50591000
16.32478392,-69.50591000
16.32734392,-69.50591000
16.32990392,-69.50591000
16.33246392,-69.50591000
16.33502392,-69.50591000
16.33758392,-69.50591000
16.34014392,-69.50591000
16.34270392,-69.50591000
16.34526392,-69.50591000
16.34782392,-69.50591000
16.35038392,-69.50591000
16.35294392,-69.50591000
16.35550392,-69.50591000
16.35806392,-69.50591000
16.36062392,-69.50591000
16.36318392,-69.50591000
16.36574392,-69.50591000
16.36830392,-69.50591000
16.37086392,-69.50591000
16.37342392,-69.50591000
16.37598392,-69.50591000
16.37854392,-69.50591000
16.38110392,-69.50591000
16.38366392,-69.50591000
16.38622392,-69.50591000
16.38878392,-69.50591000
16.39134392,-69.50591000
16.39390392,-69.50591000
16.39646392,-69.50591000
16.39902392,-69.50591000
16.40158392,-69.50591000
16.40414392,-69.50591000
16.40670392,-69.50591000
16.40926392,-69.50591000
16.41182392,-69.50591000
16.41438392,-69.50591000
16.41694392,-69.50591000
16.41950392,-69.50591000
16.42206392,-69.50591000
16.42462392,-69.50591000
16.42718392,-69.50591000
16.42974392,-69.50591000
16.43230392,-69.50591000
16.43486392,-69.50591000
16.43742392,-69.50591000
16.43998392,-69.50591000
16.44254392,-69.50591000
16.44510392,-69.50591000
16.44766392,-69.50591000
16.45022392,-69.50591000
16.45278392,-69.50591000
16.45534392,-69.50591000
16.45790392,-69.50591000
16.46046392,-69.50591000
16.46302392,-69.50591000
16.46558392,-69.50591000
16.46814392,-69.50591000
16.47070392,-69.50591000
16.47326392,-69.50591000
16.47582392,-69.50591000
16.47838392,-69.50591000
16.48094392,-69.50591000
16.48350392,-69.50591000
16.48606392,-69.50591000
16.48862392,-69.50591000
16.49118392,-69.50591000
16.49374392,-69.50591000
16.49630392,-69.50591000
16.49886392,-69.50591000
16.50142392,-69.50591000
16.50398392,-69.50591000
16.50654392,-69.50591000
16.50910392,-69.50591000
16.51166392,-69.50591000
16.51422392,-69.50591000
16.51678392,-69.50591000
16.51934392,-69.50591000
16.52190392,-69.50591000
16.52446392,-69.50591000
16.52702392,-69.50591000
16.52958392,-69.50591000
16.53214392,-69.50591000
16.53470392,-69.50591000
16.53726392,-69.50591000
16.53982392,-69.50591000
16.54238392,-69.50591000
16.54494392,-69.50591000
16.54750392,-69.50591000
16.55006392,-69.50591000
16.55262392,-69.50591000
16.55518392,-69.50591000
16.55774392,-69.50591000
16.56030392,-69.50591000
16.56286392,-69.50591000
16.56542392,-69.50591000
16.56798392,-69.50591000
16.57054392,-69.50591000
16.57310392,-69.50591000
16.57566392,-69.50591000
16.57822392,-69.50591000
16.58078392,-69.50591000
16.58334392,-69.50591000
16.58590392,-69.50591000
16.58846392,-69.50591000
16.59102392,-69.50591000
16.59358392,-69.50591000
16.59614392,-69.50591000
16.59870392,-69.50591000
16.60126392,-69.50591000
16.60382392,-69.50591000
16.60638392,-69.50591000
16.60894392,-69.50591000
16.61150392,-69.50591000
16.61406392,-69.50591000
16.61662392,-69.50591000
16.61918392,-69.50591000
16.62174392,-69.50591000
16.62430392,-69.50591000
16.62686392,-73.99212000
16.62942392,-69.50591000
16.63198392,-69.50591000
16.63454392,-69.50591000
16.63710392,-69.50591000
16.63966392,-69.50591000
16.64222392,-69.50591000
16.64478392,-69.50591000
16.64734392,-69.50591000
16.64990392,-69.50591000
16.65246392,-69.50591000
16.65502392,-69.50591000
16.65758392,-69.50591000
16.66014392,-69.50591000
16.66270392,-69.50591000
16.66526392,-69.50591000
16.66782392,-69.50591000
16.67038392,-69.50591000
16.67294392,-69.50591000
16.67550392,-69.50591000
16.67806392,-69.50591000
16.68062392,-69.50591000
16.68318392,-69.50591000
16.68574392,-69.50591000
16.68830392,-69.50591000
16.69086392,-69.50591000
16.69342392,-69.50591000
16.69598392,-69.50591000
16.69854392,-69.50591000
16.70110392,-69.50591000
16.70366392,-69.50591000
16.70622392,-69.50591000
16.70878392,-69.50591000
16.71134392,-69.50591000
16.71390392,-69.50591000
16.71646392,-69.50591000
16.71902392,-69.50591000
16.72158392,-69.50591000
16.72414392,-69.50591000
16.72670392,-69.50591000
16.72926392,-69.50591000
16.73182392,-69.50591000
16.73438392,-69.50591000
16.73694392,-69.50591000
16.73950392,-69.50591000
16.74206392,-69.50591000
16.74462392,-69.50591000
16.74718392,-69.50591000
16.74974392,-69.50591000
16.75230392,-69.50591000
16.75486392,-69.50591000
16.75742392,-69.50591000
16.75998392,-69.50591000
16.76254392,-69.50591000
16.76510392,-69.50591000
16.76766392,-69.50591000
16.77022392,-69.50591000
16.77278392,-69.50591000
16.77534392,-69.50591000
16.77790392,-69.50591000
16.78046392,-69.50591000
16.78302392,-69.50591000
16.78558392,-69.50591000
16.78814392,-69.50591000
16.79070392,-69.50591000
16.79326392,-69.50591000
16.79582392,-69.50591000
16.79838392,-69.50591000
16.80094392,-69.50591000
16.80350392,-69.50591000
16.80606392,-69.50591000
16.80862392,-69.50591000
16.81118392,-69.50591000
16.81374392,-69.50591000
16.81630391,-69.50591000
16.81886391,-69.50591000
16.82142391,-69.50591000
16.82398391,-69.50591000
16.82654391,-69.50591000
16.82910391,-69.50591000
16.83166391,-69.50591000
16.83422391,-69.50591000
16.83678391,-69.50591000
16.83934391,-69.50591000
16.84190391,-69.50591000
16.84446391,-69.50591000
16.84702391,-69.50591000
16.84958391,-69.50591000
16.85214391,-69.50591000
16.85470391,-69.50591000
16.85726391,-69.50591000
16.85982391,-69.50591000
16.86238391,-69.50591000
16.86494391,-69.50591000
16.86750391,-69.50591000
16.87006391,-69.50591000
16.87262391,-69.50591000
16.87518391,-69.50591000
16.87774391,-69.50591000
16.88030391,-69.50591000
16.88286391,-69.50591000
16.88542391,-69.50591000
16.88798391,-69.50591000
16.89054391,-69.50591000
16.89310391,-69.50591000
16.89566391,-69.50591000
16.89822391,-69.50591000
16.90078391,-69.50591000
16.90334391,-69.50591000
16.90590391,-69.50591000
16.90846391,-69.50591000
16.91102391,-69.50591000
16.91358391,-69.50591000
16.91614391,-69.50591000
16.91870391,-69.50591000
16.92126391,-69.50591000
16.92382391,-69.50591000
16.92638391,-69.50591000
16.92894391,-69.50591000
16.93150391,-69.50591000
16.93406391,-69.50591000
16.93662391,-69.50591000
16.93918391,-69.50591000
16.94174391,-69.50591000
16.94430391,-69.50591000
16.94686391,-69.50591000
16.94942391,-69.50591000
16.95198391,-69.50591000
16.95454391,-69.50591000
16.95710391,-69.50591000
16.95966391,-69.50591000
16.96222391,-69.50591000
16.96478391,-69.50591000
16.96734391,-69.50591000
16.96990391,-69.50591000
16.97246391,-69.50591000
16.97502391,-69.50591000
16.97758391,-69.50591000
16.98014391,-69.50591000
16.98270391,-69.50591000
16.98526391,-69.50591000
16.98782391,-69.50591000
16.99038391,-69.50591000
16.99294391,-69.50591000
16.99550391,-69.50591000
16.99806391,-69.50591000
17.00062391,-69.50591000
17.00318391,-69.50591000
17.00574391,-69.50591000
17.00830391,-69.50591000
17.01086391,-69.50591000
17.01342391,-69.50591000
17.01598391,-69.50591000
17.01854391,-69.50591000
17.02110391,-69.50591000
17.02366391,-69.50591000
17.02622391,-69.50591000
17.02878391,-69.50591000
17.03134391,-69.50591000
17.03390391,-69.50591000
17.03646391,-69.50591000
17.03902391,-69.50591000
17.04158391,-69.50591000
17.04414391,-69.50591000
17.04670391,-69.50591000
17.04926391,-69.50591000
17.05182391,-69.50591000
17.05438391,-69.50591000
17.05694391,-69.50591000
17.05950391,-69.50591000
17.06206391,-69.50591000
17.06462391,-69.50591000
17.06718391,-69.50591000
17.06974391,-69.50591000
17.07230391,-69.50591000
17.07486391,-69.50591000
17.07742391,-69.50591000
17.07998391,-69.50591000
17.08254391,-69.50591000
17.08510391,-69.50591000
17.08766391,-69.50591000
17.09022391,-69.50591000
17.09278391,-69.50591000
17.09534391,-69.50591000
17.09790391,-69.50591000
17.10046391,-69.50591000
17.10302391,-69.50591000
17.10558391,-69.50591000
17.10814391,-69.50591000
17.11070391,-69.50591000
17.11326391,-69.50591000
17.11582391,-69.50591000
17.11838391,-69.50591000
17.12094391,-69.50591000
17.12350391,-69.50591000
17.12606391,-69.50591000
17.12862391,-69.50591000
17.13118391,-69.50591000
17.13374391,-69.50591000
17.13630391,-69.50591000
17.13886391,-69.50591000
17.14142391,-69.50591000
17.14398391,-69.50591000
17.14654391,-69.50591000
17.14910391,-69.50591000
17.15166391,-69.50591000
17.15422391,-69.50591000
17.15678391,-69.50591000
17.15934391,-69.50591000
17.16190391,-69.50591000
17.16446391,-69.50591000
17.16702391,-69.50591000
17.16958391,-69.50591000
17.17214391,-69.50591000
17.17470391,-69.50591000
17.17726391,-69.50591000
17.17982391,-69.50591000
17.18238391,-69.50591000
17.18494391,-69.50591000
17.18750391,-69.50591000
17.19006391,-69.50591000
17.19262391,-69.50591000
17.19518391,-69.50591000
17.19774391,-69.50591000
17.20030391,-69.50591000
17.20286391,-69.50591000
17.20542391,-69.50591000
17.20798391,-69.50591000
17.21054391,-69.50591000
17.21310391,-69.50591000
17.21566391,-69.50591000
17.21822391,-69.50591000
17.22078391,-69.50591000
17.22334391,-69.50591000
17.22590391,-69.50591000
17.22846391,-69.50591000
17.23102391,-69.50591000
17.23358391,-69.50591000
17.23614391,-69.50591000
17.23870391,-69.50591000
17.24126391,-69.50591000
17.24382391,-69.50591000
17.24638391,-69.50591000
17.24894391,-69.50591000
17.25150391,-69.50591000
17.25406391,-69.50591000
17.25662391,-69.50591000
17.25918391,-69.50591000
17.26174391,-69.50591000
17.26430391,-69.50591000
17.26686391,-69.50591000
17.26942391,-69.50591000
17.27198391,-69.50591000
17.27454391,-69.50591000
17.27710391,-69.50591000
17.27966391,-69.50591000
17.28222391,-69.50591000
17.28478391,-69.50591000
17.28734391,-69.50591000
17.28990391,-69.50591000
17.29246391,-69.50591000
17.29502391,-69.50591000
17.29758391,-69.50591000
17.30014391,-69.50591000
17.30270391,-69.50591000
17.30526391,-69.50591000
17.30782391,-69.50591000
17.31038391,-69.50591000
17.31294391,-69.50591000
17.31550391,-69.50591000
17.31806391,-69.50591000
17.32062391,-69.50591000
17.32318391,-69.50591000
17.32574391,-69.50591000
17.32830391,-69.50591000
17.33086391,-69.50591000
17.33342391,-69.50591000
17.33598391,-69.50591000
17.33854391,-69.50591000
17.34110391,-69.50591000
17.34366391,-69.50591000
17.34622391,-73.99212000
17.34878391,-69.50591000
17.35134391,-69.50591000
17.35390391,-69.50591000
17.35646391,-73.99212000
17.35902391,-69.50591000
17.36158391,-73.99212000
17.36414391,-73.99212000
17.36670391,-73.99212000
17.36926391,-69.50591000
17.37182391,-73.99212000
17.37438391,-69.50591000
17.37694391,-69.50591000
17.37950391,-69.50591000
17.38206391,-69.50591000
17.38462391,-69.50591000
17.38718391,-73.99212000
17.38974391,-69.50591000
17.39230391,-69.50591000
17.39486391,-69.50591000
17.39742391,-69.50591000
17.39998391,-73.99212000
17.40254391,-69.50591000
17.40510391,-73.99212000
17.40766391,-69.50591000
17.41022391,-69.50591000
17.41278391,-69.50591000
17.41534391,-69.50591000
17.41790391,-73.99212000
17.42046391,-69.50591000
17.42302391,-69.50591000
17.42558391,-73.99212000
17.42814391,-69.50591000
17.43070391,-69.50591000
17.43326391,-69.50591000
17.43582391,-69.50591000
17.43838391,-69.50591000
17.44094391,-69.50591000
17.44350391,-69.50591000
17.44606391,-69.50591000
17.44862391,-69.50591000
17.45118391,-69.50591000
17.45374391,-69.50591000
17.45630391,-69.50591000
17.45886391,-69.50591000
17.46142391,-69.50591000
17.46398391,-69.50591000
17.46654391,-69.50591000
17.46910391,-69.50591000
17.47166391,-69.50591000
17.47422391,-69.50591000
17.47678391,-69.50591000
17.47934391,-69.50591000
17.48190391,-69.50591000
17.48446391,-69.50591000
17.48702391,-69.50591000
17.48958391,-69.50591000
17.49214391,-69.50591000
17.49470391,-69.50591000
17.49726391,-69.50591000
17.49982391,-69.50591000
17.50238391,-69.50591000
17.50494391,-69.50591000
17.50750391,-69.50591000
17.51006391,-69.50591000
17.51262391,-69.50591000
17.51518391,-69.50591000
17.51774391,-69.50591000
17.52030391,-69.50591000
17.52286391,-69.50591000
17.52542391,-69.50591000
17.52798391,-69.50591000
17.53054391,-69.50591000
17.53310391,-69.50591000
17.53566391,-69.50591000
17.53822391,-69.50591000
17.54078391,-69.50591000
17.54334391,-69.50591000
17.54590391,-69.50591000
17.54846391,-69.50591000
17.55102391,-69.50591000
17.55358391,-69.50591000
17.55614391,-69.50591000
17.55870391,-69.50591000
17.56126391,-69.50591000
17.56382391,-69.50591000
17.56638391,-69.50591000
17.56894391,-65.03493000
17.57150391,-69.50591000
17.57406391,-65.03493000
17.57662391,-69.50591000
17.57918391,-69.50591000
17.58174391,-69.50591000
17.58430391,-69.50591000
17.58686391,-65.03493000
17.58942391,-69.50591000
17.59198391,-69.50591000
17.59454391,-69.50591000
17.59710391,-69.50591000
17.59966391,-69.50591000
17.60222391,-69.50591000
17.60478391,-69.50591000
17.60734391,-69.50591000
17.60990391,-69.50591000
17.61246391,-69.50591000
17.61502391,-65.03493000
17.61758391,-69.50591000
17.62014391,-65.03493000
17.62270391,-65.03493000
17.62526391,-65.03493000
17.62782391,-69.50591000
17.63038391,-69.50591000
17.63294391,-69.50591000
17.63550391,-69.50591000
17.63806391,-69.50591000
17.64062391,-69.50591000
17.64318391,-69.50591000
17.64574391,-69.50591000
17.64830391,-69.50591000
17.65086391,-65.03493000
17.65342391,-65.03493000
17.65598391,-65.03493000
17.65854391,-69.50591000
17.66110391,-69.50591000
17.66366391,-69.50591000
17.66622391,-69.50591000
17.66878391,-65.03493000
17.67134391,-69.50591000
17.67390391,-69.50591000
17.67646391,-69.50591000
17.67902391,-69.50591000
17.68158391,-69.50591000
17.68414391,-69.50591000
17.68670391,-69.50591000
17.68926391,-69.50591000
17.69182391,-69.50591000
17.69438391,-69.50591000
17.69694391,-69.50591000
17.69950391,-69.50591000
17.70206391,-69.50591000
17.70462391,-69.50591000
17.70718391,-69.50591000
17.70974391,-69.50591000
17.71230391,-69.50591000
17.71486391,-65.03493000
17.71742391,-69.50591000
17.71998391,-69.50591000
17.72254391,-69.50591000
17.72510391,-69.50591000
17.72766391,-69.50591000
17.73022391,-69.50591000
17.73278391,-69.50591000
17.73534391,-69.50591000
17.73790391,-69.50591000
17.74046391,-69.50591000
17.74302391,-69.50591000
17.74558391,-69.50591000
17.74814391,-69.50591000
17.75070391,-69.50591000
17.75326391,-69.50591000
17.75582391,-69.50591000
17.75838391,-69.50591000
17.76094391,-69.50591000
17.76350391,-69.50591000
17.76606391,-69.50591000
17.76862391,-69.50591000
17.77118391,-69.50591000
17.77374391,-69.50591000
17.77630391,-69.50591000
17.77886391,-69.50591000
17.78142391,-69.50591000
17.78398391,-69.50591000
17.78654391,-69.50591000
17.78910391,-69.50591000
17.79166391,-69.50591000
17.79422391,-69.50591000
17.79678391,-69.50591000
17.79934391,-69.50591000
17.80190391,-69.50591000
17.80446391,-69.50591000
17.80702391,-69.50591000
17.80958391,-69.50591000
17.81214391,-69.50591000
17.81470391,-69.50591000
17.81726391,-69.50591000
17.81982391,-69.50591000
17.82238391,-69.50591000
17.82494391,-69.50591000
17.82750391,-69.50591000
17.83006391,-69.50591000
17.83262391,-69.50591000
17.83518391,-69.50591000
17.83774391,-69.50591000
17.84030391,-69.50591000
17.84286391,-69.50591000
17.84542391,-69.50591000
17.84798391,-69.50591000
17.85054391,-69.50591000
17.85310391,-69.50591000
17.85566391,-69.50591000
17.85822391,-69.50591000
17.86078391,-69.50591000
17.86334391,-69.50591000
17.86590391,-69.50591000
17.86846391,-69.50591000
17.87102391,-69.50591000
17.87358391,-69.50591000
17.87614391,-69.50591000
17.87870391,-69.50591000
17.88126391,-69.50591000
17.88382391,-69.50591000
17.88638391,-69.50591000
17.88894391,-69.50591000
17.89150391,-69.50591000
17.89406391,-69.50591000
17.89662391,-69.50591000
17.89918391,-69.50591000
17.90174391,-69.50591000
17.90430391,-69.50591000
17.90686391,-69.50591000
17.90942391,-69.50591000
17.91198391,-69.50591000
17.91454391,-69.50591000
17.91710391,-69.50591000
17.91966391,-69.50591000
17.92222391,-69.50591000
17.92478391,-69.50591000
17.92734391,-69.50591000
17.92990391,-69.50591000
17.93246391,-69.50591000
17.93502391,-69.50591000
17.93758391,-69.50591000
17.94014391,-69.50591000
17.94270391,-69.50591000
17.94526391,-69.50591000
17.94782391,-69.50591000
17.95038391,-69.50591000
17.95294391,-69.50591000
17.95550391,-69.50591000
17.95806391,-69.50591000
17.96062391,-69.50591000
17.96318391,-69.50591000
17.96574391,-69.50591000
17.96830391,-69.50591000
17.97086391,-65.03493000
17.97342391,-69.50591000
17.97598391,-69.50591000
17.97854391,-69.50591000
17.98110391,-69.50591000
17.98366391,-69.50591000
17.98622391,-69.50591000
17.98878391,-69.50591000
17.99134391,-69.50591000
17.99390391,-69.50591000
17.99646391,-69.50591000
17.99902391,-69.50591000
18.00158391,-69.50591000
18.00414391,-69.50591000
18.00670391,-69.50591000
18.00926391,-69.50591000
18.01182391,-69.50591000
18.01438391,-69.50591000
18.01694391,-69.50591000
18.01950391,-69.50591000
18.02206391,-69.50591000
18.02462391,-69.50591000
18.02718391,-69.50591000
18.02974391,-69.50591000
18.03230391,-69.50591000
18.03486391,-69.50591000
18.03742391,-69.50591000
18.03998391,-69.50591000
18.04254391,-69.50591000
18.04510391,-69.50591000
18.04766391,-69.50591000
18.05022391,-69.50591000
18.05278391,-69.50591000
18.05534391,-69.50591000
18.05790391,-69.50591000
18.06046391,-69.50591000
18.06302391,-69.50591000
18.06558391,-69.50591000
18.06814391,-69.50591000
18.07070391,-69.50591000
18.07326391,-69.50591000
18.07582391,-69.50591000
18.07838391,-69.50591000
18.08094391,-69.50591000
18.08350391,-65.03493000
18.08606391,-69.50591000
18.08862391,-69.50591000
18.09118391,-69.50591000
18.09374391,-69.50591000
18.09630391,-69.50591000
18.09886391,-69.50591000
18.10142391,-69.50591000
18.10398391,-69.50591000
18.10654391,-69.50591000
18.10910391,-69.50591000
18.11166391,-69.50591000
18.11422391,-69.50591000
18.11678391,-69.50591000
18.11934391,-69.50591000
18.12190391,-69.50591000
18.12446391,-69.50591000
18.12702391,-69.50591000
18.12958391,-69.50591000
18.13214391,-69.50591000
18.13470391,-69.50591000
18.13726391,-69.50591000
18.13982391,-69.50591000
18.14238391,-69.50591000
18.14494391,-69.50591000
18.14750391,-69.50591000
18.15006391,-69.50591000
18.15262391,-69.50591000
18.15518391,-69.50591000
18.15774391,-69.50591000
18.16030391,-69.50591000
18.16286391,-65.03493000
18.16542391,-69.50591000
18.16798391,-69.50591000
18.17054391,-69.50591000
18.17310391,-69.50591000
18.17566391,-69.50591000
18.17822391,-69.50591000
18.18078391,-69.50591000
18.18334391,-69.50591000
18.18590391,-69.50591000
18.18846391,-69.50591000
18.19102391,-69.50591000
18.19358391,-69.50591000
18.19614391,-69.50591000
18.19870391,-69.50591000
18.20126391,-69.50591000
18.20382391,-69.50591000
18.20638391,-69.50591000
18.20894391,-69.50591000
18.21150391,-69.50591000
18.21406391,-69.50591000
18.21662391,-69.50591000
18.21918391,-69.50591000
18.22174391,-69.50591000
18.22430391,-69.50591000
18.22686391,-69.50591000
18.22942391,-69.50591000
18.23198391,-69.50591000
18.23454391,-69.50591000
18.23710391,-69.50591000
18.23966391,-69.50591000
18.24222391,-69.50591000
18.24478391,-69.50591000
18.24734391,-69.50591000
18.24990391,-69.50591000
18.25246391,-69.50591000
18.25502391,-69.50591000
18.25758391,-69.50591000
18.26014391,-69.50591000
18.26270391,-69.50591000
18.26526391,-69.50591000
18.26782391,-69.50591000
18.27038391,-69.50591000
18.27294391,-69.50591000
18.27550391,-69.50591000
18.27806391,-69.50591000
18.28062391,-69.50591000
18.28318391,-65.03493000
18.28574391,-69.50591000
18.28830391,-65.03493000
18.29086391,-69.50591000
18.29342391,-69.50591000
18.29598391,-69.50591000
18.29854391,-69.50591000
18.30110391,-69.50591000
18.30366391,-69.50591000
18.30622391,-69.50591000
18.30878391,-69.50591000
18.31134391,-69.50591000
18.31390391,-69.50591000
18.31646391,-69.50591000
18.31902391,-69.50591000
18.32158391,-65.03493000
18.32414391,-69.50591000
18.32670391,-69.50591000
18.32926391,-69.50591000
18.33182391,-69.50591000
18.33438391,-69.50591000
18.33694391,-69.50591000
18.33950391,-69.50591000
18.34206391,-69.50591000
18.34462391,-69.50591000
18.34718391,-69.50591000
18.34974391,-69.50591000
18.35230391,-69.50591000
18.35486391,-69.50591000
18.35742391,-65.03493000
18.35998391,-69.50591000
18.36254391,-69.50591000
18.36510391,-69.50591000
18.36766391,-69.50591000
18.37022391,-69.50591000
18.37278391,-69.50591000
18.37534391,-65.03493000
18.37790391,-65.03493000
18.38046391,-69.50591000
18.38302391,-69.50591000
18.38558391,-69.50591000
18.38814391,-69.50591000
18.39070391,-69.50591000
18.39326391,-65.03493000
18.39582391,-69.50591000
18.39838391,-69.50591000
18.40094391,-69.50591000
18.40350391,-69.50591000
18.40606391,-69.50591000
18.40862391,-69.50591000
18.41118391,-69.50591000
18.41374391,-69.50591000
18.41630391,-69.50591000
18.41886391,-69.50591000
18.42142391,-69.50591000
18.42398391,-69.50591000
18.42654391,-69.50591000
18.42910391,-69.50591000
18.43166391,-69.50591000
18.43422391,-69.50591000
18.43678391,-69.50591000
18.43934391,-69.50591000
18.44190391,-69.50591000
18.44446391,-69.50591000
18.44702391,-69.50591000
18.44958391,-69.50591000
18.45214391,-69.50591000
18.45470391,-69.50591000
18.45726391,-69.50591000
18.45982391,-69.50591000
18.46238390,-69.50591000
18.46494390,-69.50591000
18.46750390,-69.50591000
18.47006390,-69.50591000
18.47262390,-69.50591000
18.47518390,-69.50591000
18.47774390,-69.50591000
18.48030390,-69.50591000
18.48286390,-69.50591000
18.48542390,-69.50591000
18.48798390,-69.50591000
18.49054390,-69.50591000
18.49310390,-69.50591000
18.49566390,-69.50591000
18.49822390,-69.50591000
18.50078390,-69.50591000
18.50334390,-69.50591000
18.50590390,-69.50591000
18.50846390,-69.50591000
18.51102390,-69.50591000
18.51358390,-69.50591000
18.51614390,-69.50591000
18.51870390,-69.50591000
18.52126390,-69.50591000
18.52382390,-69.50591000
18.52638390,-69.50591000
18.52894390,-69.50591000
18.53150390,-69.50591000
18.53406390,-69.50591000
18.53662390,-69.50591000
18.53918390,-69.50591000
18.54174390,-69.50591000
18.54430390,-69.50591000
18.54686390,-69.50591000
18.54942390,-69.50591000
18.55198390,-69.50591000
18.55454390,-69.50591000
18.55710390,-69.50591000
18.55966390,-69.50591000
18.56222390,-69.50591000
18.56478390,-69.50591000
18.56734390,-69.50591000
18.56990390,-69.50591000
18.57246390,-69.50591000
18.57502390,-69.50591000
18.57758390,-69.50591000
18.58014390,-69.50591000
18.58270390,-69.50591000
18.58526390,-69.50591000
18.58782390,-69.50591000
18.59038390,-69.50591000
18.59294390,-69.50591000
18.59550390,-69.50591000
18.59806390,-69.50591000
18.60062390,-69.50591000
18.60318390,-69.50591000
18.60574390,-69.50591000
18.60830390,-69.50591000
18.61086390,-69.50591000
18.61342390,-69.50591000
18.61598390,-69.50591000
18.61854390,-69.50591000
18.62110390,-69.50591000
18.62366390,-69.50591000
18.62622390,-69.50591000
18.62878390,-69.50591000
18.63134390,-69.50591000
18.63390390,-69.50591000
18.63646390,-69.50591000
18.63902390,-69.50591000
18.64158390,-69.50591000
18.64414390,-69.50591000
18.64670390,-69.50591000
18.64926390,-69.50591000
18.65182390,-69.50591000
18.65438390,-69.50591000
18.65694390,-69.50591000
18.65950390,-69.50591000
18.66206390,-69.50591000
18.66462390,-69.50591000
18.66718390,-69.50591000
18.66974390,-69.50591000
18.67230390,-69.50591000
18.67486390,-69.50591000
18.67742390,-69.50591000
18.67998390,-69.50591000
