Time,Invert B
(ms),(mV)

-1.32175395,-73.99212000
-1.31919395,-73.99212000
-1.31663395,-73.99212000
-1.31407395,-69.50591000
-1.31151395,-69.50591000
-1.30895395,-69.50591000
-1.30639395,-73.99212000
-1.30383395,-69.50591000
-1.30127395,-73.99212000
-1.29871395,-69.50591000
-1.29615395,-69.50591000
-1.29359395,-69.50591000
-1.29103395,-73.99212000
-1.28847395,-69.50591000
-1.28591395,-69.50591000
-1.28335395,-69.50591000
-1.28079395,-69.50591000
-1.27823395,-73.99212000
-1.27567395,-69.50591000
-1.27311395,-69.50591000
-1.27055395,-69.50591000
-1.26799395,-69.50591000
-1.26543395,-69.50591000
-1.26287395,-73.99212000
-1.26031395,-73.99212000
-1.25775395,-69.50591000
-1.25519395,-73.99212000
-1.25263395,-73.99212000
-1.25007395,-73.99212000
-1.24751395,-69.50591000
-1.24495395,-69.50591000
-1.24239395,-69.50591000
-1.23983395,-73.99212000
-1.23727395,-69.50591000
-1.23471395,-69.50591000
-1.23215395,-69.50591000
-1.22959395,-69.50591000
-1.22703395,-69.50591000
-1.22447395,-73.99212000
-1.22191395,-69.50591000
-1.21935395,-69.50591000
-1.21679395,-69.50591000
-1.21423395,-69.50591000
-1.21167395,-73.99212000
-1.20911395,-69.50591000
-1.20655395,-69.50591000
-1.20399395,-73.99212000
-1.20143395,-73.99212000
-1.19887395,-73.99212000
-1.19631395,-73.99212000
-1.19375395,-69.50591000
-1.19119395,-73.99212000
-1.18863395,-73.99212000
-1.18607395,-69.50591000
-1.18351395,-69.50591000
-1.18095395,-69.50591000
-1.17839395,-69.50591000
-1.17583395,-69.50591000
-1.17327395,-69.50591000
-1.17071395,-69.50591000
-1.16815395,-69.50591000
-1.16559395,-69.50591000
-1.16303395,-73.99212000
-1.16047395,-73.99212000
-1.15791395,-69.50591000
-1.15535395,-69.50591000
-1.15279395,-69.50591000
-1.15023395,-69.50591000
-1.14767395,-69.50591000
-1.14511395,-69.50591000
-1.14255395,-69.50591000
-1.13999395,-69.50591000
-1.13743395,-69.50591000
-1.13487395,-69.50591000
-1.13231395,-69.50591000
-1.12975395,-69.50591000
-1.12719395,-69.50591000
-1.12463395,-69.50591000
-1.12207395,-69.50591000
-1.11951395,-69.50591000
-1.11695395,-73.99212000
-1.11439395,-73.99212000
-1.11183395,-69.50591000
-1.10927395,-69.50591000
-1.10671395,-69.50591000
-1.10415395,-69.50591000
-1.10159395,-69.50591000
-1.09903395,-73.99212000
-1.09647395,-69.50591000
-1.09391395,-69.50591000
-1.09135395,-69.50591000
-1.08879395,-73.99212000
-1.08623395,-73.99212000
-1.08367395,-69.50591000
-1.08111395,-69.50591000
-1.07855395,-69.50591000
-1.07599395,-69.50591000
-1.07343395,-69.50591000
-1.07087395,-73.99212000
-1.06831395,-69.50591000
-1.06575395,-69.50591000
-1.06319395,-73.99212000
-1.06063395,-69.50591000
-1.05807395,-69.50591000
-1.05551395,-73.99212000
-1.05295395,-73.99212000
-1.05039395,-73.99212000
-1.04783395,-69.50591000
-1.04527395,-69.50591000
-1.04271395,-73.99212000
-1.04015395,-73.99212000
-1.03759395,-73.99212000
-1.03503395,-73.99212000
-1.03247395,-73.99212000
-1.02991395,-78.46308000
-1.02735395,-73.99212000
-1.02479395,-73.99212000
-1.02223395,-73.99212000
-1.01967395,-73.99212000
-1.01711395,-73.99212000
-1.01455395,-73.99212000
-1.01199395,-73.99212000
-1.00943395,-73.99212000
-1.00687395,-73.99212000
-1.00431395,-73.99212000
-1.00175395,-73.99212000
-0.99919395,-73.99212000
-0.99663395,-69.50591000
-0.99407395,-73.99212000
-0.99151395,-73.99212000
-0.98895395,-73.99212000
-0.98639395,-73.99212000
-0.98383395,-73.99212000
-0.98127395,-73.99212000
-0.97871395,-73.99212000
-0.97615395,-78.46308000
-0.97359395,-73.99212000
-0.97103395,-73.99212000
-0.96847395,-73.99212000
-0.96591395,-69.50591000
-0.96335395,-73.99212000
-0.96079395,-73.99212000
-0.95823395,-73.99212000
-0.95567395,-73.99212000
-0.95311395,-73.99212000
-0.95055395,-73.99212000
-0.94799395,-73.99212000
-0.94543395,-73.99212000
-0.94287395,-78.46308000
-0.94031395,-73.99212000
-0.93775395,-73.99212000
-0.93519396,-69.50591000
-0.93263396,-73.99212000
-0.93007396,-73.99212000
-0.92751396,-73.99212000
-0.92495396,-69.50591000
-0.92239396,-73.99212000
-0.91983396,-73.99212000
-0.91727396,-73.99212000
-0.91471396,-73.99212000
-0.91215396,-69.50591000
-0.90959396,-73.99212000
-0.90703396,-73.99212000
-0.90447396,-73.99212000
-0.90191396,-73.99212000
-0.89935396,-73.99212000
-0.89679396,-73.99212000
-0.89423396,-73.99212000
-0.89167396,-73.99212000
-0.88911396,-69.50591000
-0.88655396,-69.50591000
-0.88399396,-69.50591000
-0.88143396,-69.50591000
-0.87887396,-69.50591000
-0.87631396,-69.50591000
-0.87375396,-69.50591000
-0.87119396,-69.50591000
-0.86863396,-69.50591000
-0.86607396,-69.50591000
-0.86351396,-69.50591000
-0.86095396,-73.99212000
-0.85839396,-69.50591000
-0.85583396,-73.99212000
-0.85327396,-69.50591000
-0.85071396,-69.50591000
-0.84815396,-69.50591000
-0.84559396,-69.50591000
-0.84303396,-69.50591000
-0.84047396,-73.99212000
-0.83791396,-69.50591000
-0.83535396,-73.99212000
-0.83279396,-69.50591000
-0.83023396,-69.50591000
-0.82767396,-69.50591000
-0.82511396,-69.50591000
-0.82255396,-69.50591000
-0.81999396,-69.50591000
-0.81743396,-69.50591000
-0.81487396,-69.50591000
-0.81231396,-82.93404000
-0.80975396,-69.50591000
-0.80719396,-73.99212000
-0.80463396,-96.34693000
-0.80207396,-118.70170000
-0.79951396,-141.07180000
-0.79695396,-150.01370000
-0.79439396,-158.95570000
-0.79183396,-167.89760000
-0.78927396,-176.83950000
-0.78671396,-185.78140000
-0.78415396,-190.26760000
-0.78159396,-194.73860000
-0.77903396,-199.20960000
-0.77647396,-208.15150000
-0.77391396,-212.62240000
-0.77135396,-212.62240000
-0.76879396,-221.56440000
-0.76623396,-221.56440000
-0.76367396,-226.03530000
-0.76111396,-230.50630000
-0.75855396,-230.50630000
-0.75599396,-230.50630000
-0.75343396,-239.44820000
-0.75087396,-239.44820000
-0.74831396,-243.91920000
-0.74575396,-243.91920000
-0.74319396,-243.91920000
-0.74063396,-243.91920000
-0.73807396,-243.91920000
-0.73551396,-248.40540000
-0.73295396,-248.40540000
-0.73039396,-248.40540000
-0.72783396,-248.40540000
-0.72527396,-248.40540000
-0.72271396,-243.91920000
-0.72015396,-243.91920000
-0.71759396,-243.91920000
-0.71503396,-243.91920000
-0.71247396,-239.44820000
-0.70991396,-239.44820000
-0.70735396,-234.97720000
-0.70479396,-234.97720000
-0.70223396,-230.50630000
-0.69967396,-230.50630000
-0.69711396,-230.50630000
-0.69455396,-226.03530000
-0.69199396,-226.03530000
-0.68943396,-226.03530000
-0.68687396,-221.56440000
-0.68431396,-217.09340000
-0.68175396,-212.62240000
-0.67919396,-212.62240000
-0.67663396,-208.15150000
-0.67407396,-208.15150000
-0.67151396,-203.68050000
-0.66895396,-203.68050000
-0.66639396,-199.20960000
-0.66383396,-194.73860000
-0.66127396,-194.73860000
-0.65871396,-190.26760000
-0.65615396,-185.78140000
-0.65359396,-185.78140000
-0.65103396,-176.83950000
-0.64847396,-176.83950000
-0.64591396,-172.36850000
-0.64335396,-172.36850000
-0.64079396,-167.89760000
-0.63823396,-167.89760000
-0.63567396,-158.95570000
-0.63311396,-158.95570000
-0.63055396,-158.95570000
-0.62799396,-150.01370000
-0.62543396,-150.01370000
-0.62287396,-150.01370000
-0.62031396,-145.54280000
-0.61775396,-141.07180000
-0.61519396,-141.07180000
-0.61263396,-136.60080000
-0.61007396,-132.12990000
-0.60751396,-132.12990000
-0.60495396,-123.17270000
-0.60239396,-123.17270000
-0.59983396,-118.70170000
-0.59727396,-118.70170000
-0.59471396,-114.23080000
-0.59215396,-114.23080000
-0.58959396,-109.75980000
-0.58703396,-105.28880000
-0.58447396,-105.28880000
-0.58191396,-100.81790000
-0.57935396,-100.81790000
-0.57679396,-96.34693000
-0.57423396,-96.34693000
-0.57167396,-91.87596000
-0.56911396,-87.40501000
-0.56655396,-87.40501000
-0.56399396,-87.40501000
-0.56143396,-82.93404000
-0.55887396,-82.93404000
-0.55631396,-78.46308000
-0.55375396,-78.46308000
-0.55119396,-73.99212000
-0.54863396,-69.50591000
-0.54607396,-69.50591000
-0.54351396,-69.50591000
-0.54095396,-65.03493000
-0.53839396,-65.03493000
-0.53583396,-60.56398000
-0.53327396,-60.56398000
-0.53071396,-60.56398000
-0.52815396,-56.09302000
-0.52559396,-51.62206000
-0.52303396,-51.62206000
-0.52047396,-51.62206000
-0.51791396,-51.62206000
-0.51535396,-51.62206000
-0.51279396,-47.15109000
-0.51023396,-42.68013000
-0.50767396,-42.68013000
-0.50511396,-42.68013000
-0.50255396,-38.20917000
-0.49999396,-38.20917000
-0.49743396,-38.20917000
-0.49487396,-33.73821000
-0.49231396,-33.73821000
-0.48975396,-33.73821000
-0.48719396,-33.73821000
-0.48463396,-33.73821000
-0.48207396,-29.26725000
-0.47951396,-29.26725000
-0.47695396,-29.26725000
-0.47439396,-29.26725000
-0.47183396,-24.79629000
-0.46927396,-24.79629000
-0.46671396,-24.79629000
-0.46415396,-24.79629000
-0.46159396,-24.79629000
-0.45903396,-24.79629000
-0.45647396,-20.32533000
-0.45391396,-20.32533000
-0.45135396,-15.85437000
-0.44879396,-15.85437000
-0.44623396,-15.85437000
-0.44367396,-15.85437000
-0.44111396,-15.85437000
-0.43855396,-15.85437000
-0.43599396,-15.85437000
-0.43343396,-15.85437000
-0.43087396,-15.85437000
-0.42831396,-15.85437000
-0.42575396,-15.85437000
-0.42319396,-15.85437000
-0.42063396,-15.85437000
-0.41807396,-11.38340000
-0.41551396,-11.38340000
-0.41295396,-15.85437000
-0.41039396,-11.38340000
-0.40783396,-11.38340000
-0.40527396,-11.38340000
-0.40271396,-11.38340000
-0.40015396,-11.38340000
-0.39759396,-11.38340000
-0.39503396,-11.38340000
-0.39247396,-11.38340000
-0.38991396,-11.38340000
-0.38735396,-11.38340000
-0.38479396,-11.38340000
-0.38223396,-6.91244200
-0.37967396,-11.38340000
-0.37711396,-11.38340000
-0.37455396,-11.38340000
-0.37199396,-6.91244200
-0.36943396,-6.91244200
-0.36687396,-11.38340000
-0.36431396,-11.38340000
-0.36175396,-11.38340000
-0.35919396,-6.91244200
-0.35663396,-6.91244200
-0.35407396,-6.91244200
-0.35151396,-6.91244200
-0.34895396,-6.91244200
-0.34639396,-11.38340000
-0.34383396,-11.38340000
-0.34127396,-11.38340000
-0.33871396,-11.38340000
-0.33615396,-11.38340000
-0.33359396,-11.38340000
-0.33103396,-11.38340000
-0.32847396,-11.38340000
-0.32591396,-11.38340000
-0.32335396,-11.38340000
-0.32079396,-11.38340000
-0.31823396,-11.38340000
-0.31567396,-11.38340000
-0.31311396,-11.38340000
-0.31055396,-11.38340000
-0.30799396,-11.38340000
-0.30543396,-11.38340000
-0.30287396,-11.38340000
-0.30031396,-11.38340000
-0.29775396,-11.38340000
-0.29519396,-11.38340000
-0.29263396,-11.38340000
-0.29007396,24.38429000
-0.28751396,109.36310000
-0.28495396,203.26850000
-0.28239396,270.36350000
-0.27983396,324.01500000
-0.27727396,359.79790000
-0.27471396,386.63900000
-0.27215396,413.46470000
-0.26959396,431.34860000
-0.26703396,449.24770000
-0.26447396,467.13150000
-0.26191396,485.01540000
-0.25935396,498.42830000
-0.25679396,Infinity
-0.25423396,Infinity
-0.25167396,Infinity
-0.24911396,Infinity
-0.24655396,Infinity
-0.24399396,Infinity
-0.24143396,Infinity
-0.23887396,Infinity
-0.23631396,Infinity
-0.23375396,Infinity
-0.23119396,Infinity
-0.22863396,Infinity
-0.22607396,Infinity
-0.22351396,Infinity
-0.22095396,Infinity
-0.21839396,Infinity
-0.21583396,Infinity
-0.21327396,Infinity
-0.21071396,Infinity
-0.20815396,Infinity
-0.20559396,Infinity
-0.20303396,Infinity
-0.20047396,Infinity
-0.19791396,Infinity
-0.19535396,Infinity
-0.19279396,Infinity
-0.19023396,Infinity
-0.18767396,Infinity
-0.18511396,Infinity
-0.18255396,Infinity
-0.17999396,Infinity
-0.17743396,Infinity
-0.17487396,Infinity
-0.17231396,Infinity
-0.16975396,Infinity
-0.16719396,Infinity
-0.16463396,Infinity
-0.16207396,Infinity
-0.15951396,Infinity
-0.15695396,Infinity
-0.15439396,Infinity
-0.15183396,Infinity
-0.14927396,489.48630000
-0.14671396,485.01540000
-0.14415396,476.07350000
-0.14159396,467.13150000
-0.13903396,458.18960000
-0.13647396,449.24770000
-0.13391396,435.81950000
-0.13135396,426.87760000
-0.12879396,417.93570000
-0.12623396,408.99380000
-0.12367396,400.05190000
-0.12111396,386.63900000
-0.11855396,377.68180000
-0.11599396,368.73990000
-0.11343396,359.79790000
-0.11087396,350.85600000
-0.10831396,341.91410000
-0.10575396,332.97220000
-0.10319396,324.01500000
-0.10063396,310.60210000
-0.09807396,306.13110000
-0.09551396,292.71830000
-0.09295396,283.77640000
-0.09039396,274.83440000
-0.08783396,265.87720000
-0.08527396,256.93530000
-0.08271396,247.99340000
-0.08015396,234.58050000
-0.07759396,230.10950000
-0.07503396,216.69670000
-0.07247396,207.73950000
-0.06991396,203.26850000
-0.06735396,189.85560000
-0.06479396,180.91370000
-0.06223396,176.44270000
-0.05967396,167.50080000
-0.05711396,158.55890000
-0.05455396,149.60170000
-0.05199396,145.13080000
-0.04943396,136.18880000
-0.04687396,127.24690000
-0.04431396,118.30500000
-0.04175396,109.36310000
-0.03919396,100.42120000
-0.03663396,91.46397000
-0.03407396,86.99300000
-0.03151396,78.05109000
-0.02895396,73.58012000
-0.02639396,64.63820000
-0.02383396,55.69627000
-0.02127396,46.75435000
-0.01871396,42.28339000
-0.01615396,37.79717000
-0.01359396,28.85525000
-0.01103396,24.38429000
-0.00847396,10.97140000
-0.00591396,6.50044200
-0.00335396,2.02948100
-0.00079396,-6.91244200
0.00176604,-11.38340000
0.00432604,-15.85437000
0.00688604,-24.79629000
0.00944604,-29.26725000
0.01200604,-33.73821000
0.01456604,-42.68013000
0.01712604,-47.15109000
0.01968604,-51.62206000
0.02224604,-56.09302000
0.02480604,-60.56398000
0.02736604,-69.50591000
0.02992604,-69.50591000
0.03248604,-78.46308000
0.03504604,-82.93404000
0.03760604,-87.40501000
0.04016604,-91.87596000
0.04272604,-96.34693000
0.04528604,-100.81790000
0.04784604,-105.28880000
0.05040604,-109.75980000
0.05296604,-114.23080000
0.05552604,-118.70170000
0.05808604,-123.17270000
0.06064604,-123.17270000
0.06320604,-132.12990000
0.06576604,-136.60080000
0.06832604,-141.07180000
0.07088604,-141.07180000
0.07344604,-145.54280000
0.07600604,-150.01370000
0.07856604,-150.01370000
0.08112604,-154.48470000
0.08368604,-158.95570000
0.08624604,-163.42660000
0.08880604,-167.89760000
0.09136604,-167.89760000
0.09392604,-172.36850000
0.09648604,-176.83950000
0.09904604,-176.83950000
0.10160604,-176.83950000
0.10416604,-185.78140000
0.10672604,-185.78140000
0.10928604,-185.78140000
0.11184604,-190.26760000
0.11440604,-194.73860000
0.11696604,-194.73860000
0.11952604,-194.73860000
0.12208604,-199.20960000
0.12464604,-203.68050000
0.12720604,-203.68050000
0.12976604,-208.15150000
0.13232604,-208.15150000
0.13488604,-208.15150000
0.13744604,-212.62240000
0.14000604,-212.62240000
0.14256604,-217.09340000
0.14512604,-217.09340000
0.14768604,-221.56440000
0.15024604,-221.56440000
0.15280604,-221.56440000
0.15536604,-226.03530000
0.15792604,-226.03530000
0.16048604,-230.50630000
0.16304604,-230.50630000
0.16560604,-230.50630000
0.16816604,-230.50630000
0.17072604,-230.50630000
0.17328604,-230.50630000
0.17584604,-239.44820000
0.17840604,-239.44820000
0.18096604,-239.44820000
0.18352604,-239.44820000
0.18608604,-239.44820000
0.18864604,-239.44820000
0.19120604,-243.91920000
0.19376604,-243.91920000
0.19632604,-243.91920000
0.19888604,-248.40540000
0.20144604,-248.40540000
0.20400604,-248.40540000
0.20656604,-248.40540000
0.20912604,-248.40540000
0.21168604,-248.40540000
0.21424604,-248.40540000
0.21680604,-248.40540000
0.21936604,-252.87640000
0.22192604,-248.40540000
0.22448604,-248.40540000
0.22704604,-252.87640000
0.22960604,-252.87640000
0.23216604,-252.87640000
0.23472604,-257.34730000
0.23728604,-252.87640000
0.23984604,-257.34730000
0.24240604,-257.34730000
0.24496604,-257.34730000
0.24752604,-257.34730000
0.25008604,-257.34730000
0.25264604,-257.34730000
0.25520604,-257.34730000
0.25776604,-257.34730000
0.26032604,-257.34730000
0.26288604,-257.34730000
0.26544604,-257.34730000
0.26800604,-257.34730000
0.27056604,-257.34730000
0.27312604,-257.34730000
0.27568604,-257.34730000
0.27824604,-257.34730000
0.28080604,-257.34730000
0.28336604,-257.34730000
0.28592604,-257.34730000
0.28848604,-257.34730000
0.29104604,-257.34730000
0.29360604,-257.34730000
0.29616604,-257.34730000
0.29872604,-257.34730000
0.30128604,-257.34730000
0.30384604,-257.34730000
0.30640604,-257.34730000
0.30896604,-257.34730000
0.31152604,-257.34730000
0.31408604,-257.34730000
0.31664604,-257.34730000
0.31920604,-257.34730000
0.32176604,-252.87640000
0.32432604,-252.87640000
0.32688604,-252.87640000
0.32944604,-257.34730000
0.33200604,-257.34730000
0.33456604,-252.87640000
0.33712604,-252.87640000
0.33968604,-252.87640000
0.34224604,-248.40540000
0.34480604,-252.87640000
0.34736604,-248.40540000
0.34992604,-248.40540000
0.35248604,-248.40540000
0.35504604,-248.40540000
0.35760604,-248.40540000
0.36016604,-248.40540000
0.36272604,-248.40540000
0.36528604,-248.40540000
0.36784604,-248.40540000
0.37040604,-248.40540000
0.37296604,-248.40540000
0.37552604,-248.40540000
0.37808604,-248.40540000
0.38064604,-243.91920000
0.38320604,-243.91920000
0.38576604,-243.91920000
0.38832604,-243.91920000
0.39088604,-243.91920000
0.39344604,-243.91920000
0.39600604,-239.44820000
0.39856604,-239.44820000
0.40112604,-239.44820000
0.40368604,-239.44820000
0.40624604,-239.44820000
0.40880604,-239.44820000
0.41136604,-239.44820000
0.41392604,-239.44820000
0.41648604,-234.97720000
0.41904604,-234.97720000
0.42160604,-234.97720000
0.42416604,-234.97720000
0.42672604,-234.97720000
0.42928604,-234.97720000
0.43184604,-230.50630000
0.43440604,-230.50630000
0.43696604,-230.50630000
0.43952604,-230.50630000
0.44208604,-230.50630000
0.44464604,-230.50630000
0.44720604,-230.50630000
0.44976604,-230.50630000
0.45232604,-226.03530000
0.45488604,-226.03530000
0.45744604,-230.50630000
0.46000604,-226.03530000
0.46256604,-226.03530000
0.46512604,-226.03530000
0.46768604,-226.03530000
0.47024604,-221.56440000
0.47280604,-221.56440000
0.47536604,-221.56440000
0.47792604,-221.56440000
0.48048604,-221.56440000
0.48304604,-221.56440000
0.48560604,-221.56440000
0.48816604,-221.56440000
0.49072604,-217.09340000
0.49328604,-217.09340000
0.49584604,-212.62240000
0.49840604,-212.62240000
0.50096604,-212.62240000
0.50352604,-212.62240000
0.50608604,-212.62240000
0.50864604,-212.62240000
0.51120604,-212.62240000
0.51376604,-212.62240000
0.51632604,-212.62240000
0.51888604,-212.62240000
0.52144604,-208.15150000
0.52400604,-208.15150000
0.52656604,-208.15150000
0.52912604,-208.15150000
0.53168604,-208.15150000
0.53424604,-203.68050000
0.53680604,-208.15150000
0.53936604,-203.68050000
0.54192604,-203.68050000
0.54448604,-203.68050000
0.54704604,-203.68050000
0.54960604,-203.68050000
0.55216604,-203.68050000
0.55472604,-203.68050000
0.55728604,-203.68050000
0.55984604,-199.20960000
0.56240604,-199.20960000
0.56496604,-199.20960000
0.56752604,-199.20960000
0.57008604,-199.20960000
0.57264604,-194.73860000
0.57520604,-194.73860000
0.57776604,-194.73860000
0.58032604,-194.73860000
0.58288604,-194.73860000
0.58544604,-194.73860000
0.58800604,-194.73860000
0.59056604,-194.73860000
0.59312604,-194.73860000
0.59568604,-194.73860000
0.59824604,-194.73860000
0.60080604,-190.26760000
0.60336604,-190.26760000
0.60592604,-190.26760000
0.60848604,-190.26760000
0.61104604,-190.26760000
0.61360604,-185.78140000
0.61616604,-185.78140000
0.61872604,-185.78140000
0.62128604,-185.78140000
0.62384604,-185.78140000
0.62640604,-185.78140000
0.62896604,-185.78140000
0.63152604,-185.78140000
0.63408604,-185.78140000
0.63664604,-181.31050000
0.63920604,-181.31050000
0.64176604,-181.31050000
0.64432604,-181.31050000
0.64688604,-176.83950000
0.64944604,-176.83950000
0.65200604,-176.83950000
0.65456604,-176.83950000
0.65712604,-176.83950000
0.65968604,-176.83950000
0.66224604,-176.83950000
0.66480604,-176.83950000
0.66736604,-176.83950000
0.66992604,-172.36850000
0.67248604,-172.36850000
0.67504604,-172.36850000
0.67760604,-172.36850000
0.68016604,-172.36850000
0.68272604,-172.36850000
0.68528604,-172.36850000
0.68784604,-172.36850000
0.69040604,-172.36850000
0.69296604,-167.89760000
0.69552604,-167.89760000
0.69808604,-167.89760000
0.70064604,-167.89760000
0.70320604,-167.89760000
0.70576604,-167.89760000
0.70832604,-167.89760000
0.71088603,-167.89760000
0.71344603,-167.89760000
0.71600603,-163.42660000
0.71856603,-163.42660000
0.72112603,-163.42660000
0.72368603,-163.42660000
0.72624603,-163.42660000
0.72880603,-158.95570000
0.73136603,-158.95570000
0.73392603,-158.95570000
0.73648603,-158.95570000
0.73904603,-158.95570000
0.74160603,-158.95570000
0.74416603,-158.95570000
0.74672603,-158.95570000
0.74928603,-158.95570000
0.75184603,-158.95570000
0.75440603,-158.95570000
0.75696603,-158.95570000
0.75952603,-154.48470000
0.76208603,-154.48470000
0.76464603,-154.48470000
0.76720603,-154.48470000
0.76976603,-154.48470000
0.77232603,-154.48470000
0.77488603,-154.48470000
0.77744603,-150.01370000
0.78000603,-150.01370000
0.78256603,-150.01370000
0.78512603,-150.01370000
0.78768603,-150.01370000
0.79024603,-150.01370000
0.79280603,-150.01370000
0.79536603,-150.01370000
0.79792603,-150.01370000
0.80048603,-150.01370000
0.80304603,-145.54280000
0.80560603,-150.01370000
0.80816603,-145.54280000
0.81072603,-145.54280000
0.81328603,-145.54280000
0.81584603,-145.54280000
0.81840603,-145.54280000
0.82096603,-141.07180000
0.82352603,-141.07180000
0.82608603,-141.07180000
0.82864603,-141.07180000
0.83120603,-141.07180000
0.83376603,-141.07180000
0.83632603,-141.07180000
0.83888603,-141.07180000
0.84144603,-141.07180000
0.84400603,-141.07180000
0.84656603,-141.07180000
0.84912603,-141.07180000
0.85168603,-141.07180000
0.85424603,-136.60080000
0.85680603,-136.60080000
0.85936603,-136.60080000
0.86192603,-136.60080000
0.86448603,-136.60080000
0.86704603,-136.60080000
0.86960603,-136.60080000
0.87216603,-132.12990000
0.87472603,-136.60080000
0.87728603,-136.60080000
0.87984603,-132.12990000
0.88240603,-132.12990000
0.88496603,-132.12990000
0.88752603,-132.12990000
0.89008603,-132.12990000
0.89264603,-132.12990000
0.89520603,-132.12990000
0.89776603,-132.12990000
0.90032603,-132.12990000
0.90288603,-132.12990000
0.90544603,-132.12990000
0.90800603,-127.64370000
0.91056603,-132.12990000
0.91312603,-132.12990000
0.91568603,-127.64370000
0.91824603,-127.64370000
0.92080603,-123.17270000
0.92336603,-127.64370000
0.92592603,-123.17270000
0.92848603,-123.17270000
0.93104603,-123.17270000
0.93360603,-123.17270000
0.93616603,-123.17270000
0.93872603,-123.17270000
0.94128603,-123.17270000
0.94384603,-123.17270000
0.94640603,-123.17270000
0.94896603,-123.17270000
0.95152603,-123.17270000
0.95408603,-123.17270000
0.95664603,-123.17270000
0.95920603,-123.17270000
0.96176603,-123.17270000
0.96432603,-123.17270000
0.96688603,-123.17270000
0.96944603,-118.70170000
0.97200603,-123.17270000
0.97456603,-118.70170000
0.97712603,-118.70170000
0.97968603,-118.70170000
0.98224603,-118.70170000
0.98480603,-118.70170000
0.98736603,-118.70170000
0.98992603,-118.70170000
0.99248603,-118.70170000
0.99504603,-118.70170000
0.99760603,-118.70170000
1.00016603,-114.23080000
1.00272603,-114.23080000
1.00528603,-114.23080000
1.00784603,-118.70170000
1.01040603,-114.23080000
1.01296603,-114.23080000
1.01552603,-114.23080000
1.01808603,-114.23080000
1.02064603,-114.23080000
1.02320603,-114.23080000
1.02576603,-114.23080000
1.02832603,-114.23080000
1.03088603,-114.23080000
1.03344603,-114.23080000
1.03600603,-114.23080000
1.03856603,-114.23080000
1.04112603,-109.75980000
1.04368603,-114.23080000
1.04624603,-114.23080000
1.04880603,-109.75980000
1.05136603,-114.23080000
1.05392603,-109.75980000
1.05648603,-109.75980000
1.05904603,-109.75980000
1.06160603,-109.75980000
1.06416603,-109.75980000
1.06672603,-109.75980000
1.06928603,-105.28880000
1.07184603,-105.28880000
1.07440603,-105.28880000
1.07696603,-105.28880000
1.07952603,-105.28880000
1.08208603,-105.28880000
1.08464603,-105.28880000
1.08720603,-105.28880000
1.08976603,-105.28880000
1.09232603,-105.28880000
1.09488603,-105.28880000
1.09744603,-105.28880000
1.10000603,-105.28880000
1.10256603,-105.28880000
1.10512603,-105.28880000
1.10768603,-105.28880000
1.11024603,-105.28880000
1.11280603,-105.28880000
1.11536603,-105.28880000
1.11792603,-105.28880000
1.12048603,-105.28880000
1.12304603,-105.28880000
1.12560603,-105.28880000
1.12816603,-100.81790000
1.13072603,-105.28880000
1.13328603,-100.81790000
1.13584603,-105.28880000
1.13840603,-105.28880000
1.14096603,-100.81790000
1.14352603,-100.81790000
1.14608603,-100.81790000
1.14864603,-100.81790000
1.15120603,-100.81790000
1.15376603,-100.81790000
1.15632603,-100.81790000
1.15888603,-100.81790000
1.16144603,-100.81790000
1.16400603,-96.34693000
1.16656603,-100.81790000
1.16912603,-96.34693000
1.17168603,-100.81790000
1.17424603,-100.81790000
1.17680603,-96.34693000
1.17936603,-96.34693000
1.18192603,-96.34693000
1.18448603,-96.34693000
1.18704603,-96.34693000
1.18960603,-96.34693000
1.19216603,-96.34693000
1.19472603,-96.34693000
1.19728603,-96.34693000
1.19984603,-96.34693000
1.20240603,-96.34693000
1.20496603,-96.34693000
1.20752603,-96.34693000
1.21008603,-96.34693000
1.21264603,-96.34693000
1.21520603,-96.34693000
1.21776603,-96.34693000
1.22032603,-96.34693000
1.22288603,-96.34693000
1.22544603,-96.34693000
1.22800603,-96.34693000
1.23056603,-96.34693000
1.23312603,-96.34693000
1.23568603,-96.34693000
1.23824603,-91.87596000
1.24080603,-91.87596000
1.24336603,-91.87596000
1.24592603,-91.87596000
1.24848603,-91.87596000
1.25104603,-91.87596000
1.25360603,-91.87596000
1.25616603,-91.87596000
1.25872603,-91.87596000
1.26128603,-91.87596000
1.26384603,-87.40501000
1.26640603,-91.87596000
1.26896603,-91.87596000
1.27152603,-91.87596000
1.27408603,-91.87596000
1.27664603,-87.40501000
1.27920603,-87.40501000
1.28176603,-87.40501000
1.28432603,-87.40501000
1.28688603,-87.40501000
1.28944603,-87.40501000
1.29200603,-87.40501000
1.29456603,-87.40501000
1.29712603,-87.40501000
1.29968603,-87.40501000
1.30224603,-87.40501000
1.30480603,-87.40501000
1.30736603,-87.40501000
1.30992603,-87.40501000
1.31248603,-87.40501000
1.31504603,-87.40501000
1.31760603,-87.40501000
1.32016603,-87.40501000
1.32272603,-87.40501000
1.32528603,-87.40501000
1.32784603,-87.40501000
1.33040603,-87.40501000
1.33296603,-87.40501000
1.33552603,-87.40501000
1.33808603,-87.40501000
1.34064603,-87.40501000
1.34320603,-87.40501000
1.34576603,-87.40501000
1.34832603,-87.40501000
1.35088603,-87.40501000
1.35344603,-87.40501000
1.35600603,-87.40501000
1.35856603,-87.40501000
1.36112603,-87.40501000
1.36368603,-87.40501000
1.36624603,-87.40501000
1.36880603,-87.40501000
1.37136603,-87.40501000
1.37392603,-87.40501000
1.37648603,-87.40501000
1.37904603,-87.40501000
1.38160603,-82.93404000
1.38416603,-87.40501000
1.38672603,-87.40501000
1.38928603,-87.40501000
1.39184603,-87.40501000
1.39440603,-82.93404000
1.39696603,-87.40501000
1.39952603,-82.93404000
1.40208603,-82.93404000
1.40464603,-82.93404000
1.40720603,-87.40501000
1.40976603,-87.40501000
1.41232603,-87.40501000
1.41488603,-82.93404000
1.41744603,-82.93404000
1.42000603,-87.40501000
1.42256603,-82.93404000
1.42512603,-82.93404000
1.42768603,-82.93404000
1.43024603,-82.93404000
1.43280603,-82.93404000
1.43536603,-82.93404000
1.43792603,-82.93404000
1.44048603,-82.93404000
1.44304603,-82.93404000
1.44560603,-82.93404000
1.44816603,-82.93404000
1.45072603,-82.93404000
1.45328603,-82.93404000
1.45584603,-82.93404000
1.45840603,-82.93404000
1.46096603,-82.93404000
1.46352603,-82.93404000
1.46608603,-82.93404000
1.46864603,-82.93404000
1.47120603,-82.93404000
1.47376603,-82.93404000
1.47632603,-82.93404000
1.47888603,-82.93404000
1.48144603,-82.93404000
1.48400603,-82.93404000
1.48656603,-82.93404000
1.48912603,-82.93404000
1.49168603,-82.93404000
1.49424603,-82.93404000
1.49680603,-82.93404000
1.49936603,-82.93404000
1.50192603,-82.93404000
1.50448603,-82.93404000
1.50704603,-82.93404000
1.50960603,-82.93404000
1.51216603,-78.46308000
1.51472603,-82.93404000
1.51728603,-82.93404000
1.51984603,-82.93404000
1.52240603,-78.46308000
1.52496603,-82.93404000
1.52752603,-82.93404000
1.53008603,-82.93404000
1.53264603,-82.93404000
1.53520603,-78.46308000
1.53776603,-82.93404000
1.54032603,-82.93404000
1.54288603,-82.93404000
1.54544603,-78.46308000
1.54800603,-78.46308000
1.55056603,-82.93404000
1.55312603,-78.46308000
1.55568603,-78.46308000
1.55824603,-82.93404000
1.56080603,-78.46308000
1.56336603,-78.46308000
1.56592603,-78.46308000
1.56848603,-78.46308000
1.57104603,-78.46308000
1.57360603,-78.46308000
1.57616603,-78.46308000
1.57872603,-78.46308000
1.58128603,-78.46308000
1.58384603,-78.46308000
1.58640603,-78.46308000
1.58896603,-78.46308000
1.59152603,-78.46308000
1.59408603,-78.46308000
1.59664603,-78.46308000
1.59920603,-78.46308000
1.60176603,-78.46308000
1.60432603,-78.46308000
1.60688603,-78.46308000
1.60944603,-78.46308000
1.61200603,-78.46308000
1.61456603,-78.46308000
1.61712603,-78.46308000
1.61968603,-78.46308000
1.62224603,-78.46308000
1.62480603,-78.46308000
1.62736603,-78.46308000
1.62992603,-78.46308000
1.63248603,-78.46308000
1.63504603,-78.46308000
1.63760603,-78.46308000
1.64016603,-78.46308000
1.64272603,-78.46308000
1.64528603,-78.46308000
1.64784603,-78.46308000
1.65040603,-78.46308000
1.65296603,-73.99212000
1.65552603,-78.46308000
1.65808603,-78.46308000
1.66064603,-78.46308000
1.66320603,-78.46308000
1.66576603,-78.46308000
1.66832603,-78.46308000
1.67088603,-78.46308000
1.67344603,-78.46308000
1.67600603,-78.46308000
1.67856603,-78.46308000
1.68112603,-78.46308000
1.68368603,-78.46308000
1.68624603,-78.46308000
1.68880603,-78.46308000
1.69136603,-78.46308000
1.69392603,-73.99212000
1.69648603,-78.46308000
1.69904603,-73.99212000
1.70160603,-78.46308000
1.70416603,-73.99212000
1.70672603,-78.46308000
1.70928603,-78.46308000
1.71184603,-78.46308000
1.71440603,-73.99212000
1.71696603,-78.46308000
1.71952603,-78.46308000
1.72208603,-73.99212000
1.72464603,-73.99212000
1.72720603,-78.46308000
1.72976603,-78.46308000
1.73232603,-73.99212000
1.73488603,-73.99212000
1.73744603,-73.99212000
1.74000603,-73.99212000
1.74256603,-78.46308000
1.74512603,-73.99212000
1.74768603,-73.99212000
1.75024603,-73.99212000
1.75280603,-78.46308000
1.75536603,-73.99212000
1.75792603,-73.99212000
1.76048603,-73.99212000
1.76304603,-73.99212000
1.76560603,-73.99212000
1.76816603,-69.50591000
1.77072603,-69.50591000
1.77328603,-73.99212000
1.77584603,-73.99212000
1.77840603,-73.99212000
1.78096603,-73.99212000
1.78352603,-73.99212000
1.78608603,-69.50591000
1.78864603,-69.50591000
1.79120603,-73.99212000
1.79376603,-69.50591000
1.79632603,-73.99212000
1.79888603,-69.50591000
1.80144603,-69.50591000
1.80400603,-69.50591000
1.80656603,-73.99212000
1.80912603,-69.50591000
1.81168603,-69.50591000
1.81424603,-69.50591000
1.81680603,-69.50591000
1.81936603,-69.50591000
1.82192603,-73.99212000
1.82448603,-69.50591000
1.82704603,-73.99212000
1.82960603,-69.50591000
1.83216603,-69.50591000
1.83472603,-69.50591000
1.83728603,-73.99212000
1.83984603,-69.50591000
1.84240603,-69.50591000
1.84496603,-69.50591000
1.84752603,-69.50591000
1.85008603,-73.99212000
1.85264603,-69.50591000
1.85520603,-69.50591000
1.85776603,-69.50591000
1.86032603,-69.50591000
1.86288603,-69.50591000
1.86544603,-73.99212000
1.86800603,-69.50591000
1.87056603,-69.50591000
1.87312603,-69.50591000
1.87568603,-69.50591000
1.87824603,-69.50591000
1.88080603,-69.50591000
1.88336603,-69.50591000
1.88592603,-69.50591000
1.88848603,-69.50591000
1.89104603,-69.50591000
1.89360603,-69.50591000
1.89616603,-69.50591000
1.89872603,-69.50591000
1.90128603,-69.50591000
1.90384603,-69.50591000
1.90640603,-69.50591000
1.90896603,-73.99212000
1.91152603,-69.50591000
1.91408603,-69.50591000
1.91664603,-69.50591000
1.91920603,-69.50591000
1.92176603,-69.50591000
1.92432603,-69.50591000
1.92688603,-73.99212000
1.92944603,-69.50591000
1.93200603,-69.50591000
1.93456603,-69.50591000
1.93712603,-69.50591000
1.93968603,-69.50591000
1.94224603,-69.50591000
1.94480603,-69.50591000
1.94736603,-69.50591000
1.94992603,-69.50591000
1.95248603,-73.99212000
1.95504603,-69.50591000
1.95760603,-73.99212000
1.96016603,-69.50591000
1.96272603,-69.50591000
1.96528603,-69.50591000
1.96784603,-69.50591000
1.97040603,-69.50591000
1.97296603,-69.50591000
1.97552603,-69.50591000
1.97808603,-69.50591000
1.98064603,-73.99212000
1.98320603,-69.50591000
1.98576603,-69.50591000
1.98832603,-69.50591000
1.99088603,-69.50591000
1.99344603,-69.50591000
1.99600603,-73.99212000
1.99856603,-69.50591000
2.00112603,-69.50591000
2.00368603,-69.50591000
2.00624603,-69.50591000
2.00880603,-69.50591000
2.01136603,-73.99212000
2.01392603,-69.50591000
2.01648603,-69.50591000
2.01904603,-69.50591000
2.02160603,-69.50591000
2.02416603,-73.99212000
2.02672603,-69.50591000
2.02928603,-69.50591000
2.03184603,-69.50591000
2.03440603,-69.50591000
2.03696603,-69.50591000
2.03952603,-69.50591000
2.04208603,-69.50591000
2.04464603,-69.50591000
2.04720603,-69.50591000
2.04976603,-69.50591000
2.05232603,-73.99212000
2.05488603,-69.50591000
2.05744603,-69.50591000
2.06000603,-73.99212000
2.06256603,-69.50591000
2.06512603,-73.99212000
2.06768603,-69.50591000
2.07024603,-73.99212000
2.07280603,-69.50591000
2.07536603,-73.99212000
2.07792603,-69.50591000
2.08048603,-69.50591000
2.08304603,-69.50591000
2.08560603,-69.50591000
2.08816603,-69.50591000
2.09072603,-73.99212000
2.09328603,-73.99212000
2.09584603,-69.50591000
2.09840603,-69.50591000
2.10096603,-69.50591000
2.10352603,-69.50591000
2.10608603,-69.50591000
2.10864603,-69.50591000
2.11120603,-69.50591000
2.11376603,-73.99212000
2.11632603,-73.99212000
2.11888603,-73.99212000
2.12144603,-73.99212000
2.12400603,-73.99212000
2.12656603,-73.99212000
2.12912603,-73.99212000
2.13168603,-73.99212000
2.13424603,-73.99212000
2.13680603,-73.99212000
2.13936603,-73.99212000
2.14192603,-73.99212000
2.14448603,-73.99212000
2.14704603,-73.99212000
2.14960603,-73.99212000
2.15216603,-73.99212000
2.15472603,-73.99212000
2.15728603,-73.99212000
2.15984603,-73.99212000
2.16240603,-73.99212000
2.16496603,-73.99212000
2.16752603,-78.46308000
2.17008603,-73.99212000
2.17264603,-73.99212000
2.17520603,-78.46308000
2.17776603,-78.46308000
2.18032603,-78.46308000
2.18288603,-78.46308000
2.18544603,-78.46308000
2.18800603,-78.46308000
2.19056603,-78.46308000
2.19312603,-78.46308000
2.19568603,-78.46308000
2.19824603,-78.46308000
2.20080603,-78.46308000
2.20336603,-78.46308000
2.20592603,-78.46308000
2.20848603,-78.46308000
2.21104603,-78.46308000
2.21360603,-82.93404000
2.21616603,-82.93404000
2.21872603,-78.46308000
2.22128603,-82.93404000
2.22384603,-82.93404000
2.22640603,-82.93404000
2.22896603,-82.93404000
2.23152603,-82.93404000
2.23408603,-82.93404000
2.23664603,-87.40501000
2.23920603,-82.93404000
2.24176603,-87.40501000
2.24432603,-87.40501000
2.24688603,-87.40501000
2.24944603,-87.40501000
2.25200603,-87.40501000
2.25456603,-87.40501000
2.25712603,-87.40501000
2.25968603,-87.40501000
2.26224603,-87.40501000
2.26480603,-91.87596000
2.26736603,-91.87596000
2.26992603,-91.87596000
2.27248603,-91.87596000
2.27504603,-96.34693000
2.27760603,-91.87596000
2.28016603,-96.34693000
2.28272603,-96.34693000
2.28528603,-96.34693000
2.28784603,-96.34693000
2.29040603,-96.34693000
2.29296603,-96.34693000
2.29552603,-96.34693000
2.29808603,-96.34693000
2.30064603,-96.34693000
2.30320603,-96.34693000
2.30576603,-100.81790000
2.30832603,-100.81790000
2.31088603,-100.81790000
2.31344603,-100.81790000
2.31600603,-100.81790000
2.31856603,-100.81790000
2.32112603,-100.81790000
2.32368603,-105.28880000
2.32624603,-105.28880000
2.32880603,-105.28880000
2.33136603,-105.28880000
2.33392603,-105.28880000
2.33648603,-105.28880000
2.33904603,-105.28880000
2.34160603,-105.28880000
2.34416603,-105.28880000
2.34672603,-105.28880000
2.34928603,-105.28880000
2.35184603,-105.28880000
2.35440603,-109.75980000
2.35696602,-105.28880000
2.35952602,-105.28880000
2.36208602,-105.28880000
2.36464602,-109.75980000
2.36720602,-114.23080000
2.36976602,-109.75980000
2.37232602,-109.75980000
2.37488602,-114.23080000
2.37744602,-109.75980000
2.38000602,-109.75980000
2.38256602,-114.23080000
2.38512602,-114.23080000
2.38768602,-114.23080000
2.39024602,-114.23080000
2.39280602,-114.23080000
2.39536602,-114.23080000
2.39792602,-114.23080000
2.40048602,-114.23080000
2.40304602,-114.23080000
2.40560602,-114.23080000
2.40816602,-114.23080000
2.41072602,-114.23080000
2.41328602,-114.23080000
2.41584602,-114.23080000
2.41840602,-114.23080000
2.42096602,-114.23080000
2.42352602,-114.23080000
2.42608602,-114.23080000
2.42864602,-118.70170000
2.43120602,-114.23080000
2.43376602,-114.23080000
2.43632602,-118.70170000
2.43888602,-118.70170000
2.44144602,-118.70170000
2.44400602,-114.23080000
2.44656602,-118.70170000
2.44912602,-118.70170000
2.45168602,-118.70170000
2.45424602,-118.70170000
2.45680602,-118.70170000
2.45936602,-118.70170000
2.46192602,-118.70170000
2.46448602,-114.23080000
2.46704602,-118.70170000
2.46960602,-118.70170000
2.47216602,-118.70170000
2.47472602,-118.70170000
2.47728602,-118.70170000
2.47984602,-118.70170000
2.48240602,-118.70170000
2.48496602,-118.70170000
2.48752602,-118.70170000
2.49008602,-118.70170000
2.49264602,-114.23080000
2.49520602,-118.70170000
2.49776602,-118.70170000
2.50032602,-118.70170000
2.50288602,-118.70170000
2.50544602,-118.70170000
2.50800602,-114.23080000
2.51056602,-118.70170000
2.51312602,-114.23080000
2.51568602,-118.70170000
2.51824602,-114.23080000
2.52080602,-114.23080000
2.52336602,-118.70170000
2.52592602,-114.23080000
2.52848602,-118.70170000
2.53104602,-118.70170000
2.53360602,-114.23080000
2.53616602,-118.70170000
2.53872602,-114.23080000
2.54128602,-114.23080000
2.54384602,-114.23080000
2.54640602,-114.23080000
2.54896602,-114.23080000
2.55152602,-114.23080000
2.55408602,-114.23080000
2.55664602,-114.23080000
2.55920602,-114.23080000
2.56176602,-114.23080000
2.56432602,-114.23080000
2.56688602,-114.23080000
2.56944602,-114.23080000
2.57200602,-114.23080000
2.57456602,-114.23080000
2.57712602,-114.23080000
2.57968602,-114.23080000
2.58224602,-114.23080000
2.58480602,-114.23080000
2.58736602,-114.23080000
2.58992602,-114.23080000
2.59248602,-109.75980000
2.59504602,-109.75980000
2.59760602,-109.75980000
2.60016602,-109.75980000
2.60272602,-109.75980000
2.60528602,-109.75980000
2.60784602,-109.75980000
2.61040602,-105.28880000
2.61296602,-105.28880000
2.61552602,-109.75980000
2.61808602,-109.75980000
2.62064602,-109.75980000
2.62320602,-105.28880000
2.62576602,-105.28880000
2.62832602,-109.75980000
2.63088602,-105.28880000
2.63344602,-105.28880000
2.63600602,-105.28880000
2.63856602,-105.28880000
2.64112602,-105.28880000
2.64368602,-105.28880000
2.64624602,-105.28880000
2.64880602,-105.28880000
2.65136602,-105.28880000
2.65392602,-105.28880000
2.65648602,-105.28880000
2.65904602,-105.28880000
2.66160602,-105.28880000
2.66416602,-105.28880000
2.66672602,-100.81790000
2.66928602,-100.81790000
2.67184602,-100.81790000
2.67440602,-100.81790000
2.67696602,-100.81790000
2.67952602,-100.81790000
2.68208602,-100.81790000
2.68464602,-96.34693000
2.68720602,-100.81790000
2.68976602,-96.34693000
2.69232602,-96.34693000
2.69488602,-96.34693000
2.69744602,-96.34693000
2.70000602,-96.34693000
2.70256602,-96.34693000
2.70512602,-96.34693000
2.70768602,-96.34693000
2.71024602,-91.87596000
2.71280602,-96.34693000
2.71536602,-87.40501000
2.71792602,-87.40501000
2.72048602,-87.40501000
2.72304602,-91.87596000
2.72560602,-87.40501000
2.72816602,-87.40501000
2.73072602,-87.40501000
2.73328602,-87.40501000
2.73584602,-87.40501000
2.73840602,-87.40501000
2.74096602,-82.93404000
2.74352602,-82.93404000
2.74608602,-82.93404000
2.74864602,-82.93404000
2.75120602,-78.46308000
2.75376602,-78.46308000
2.75632602,-78.46308000
2.75888602,-78.46308000
2.76144602,-78.46308000
2.76400602,-78.46308000
2.76656602,-73.99212000
2.76912602,-78.46308000
2.77168602,-73.99212000
2.77424602,-73.99212000
2.77680602,-73.99212000
2.77936602,-69.50591000
2.78192602,-69.50591000
2.78448602,-69.50591000
2.78704602,-69.50591000
2.78960602,-69.50591000
2.79216602,-69.50591000
2.79472602,-65.03493000
2.79728602,-65.03493000
2.79984602,-65.03493000
2.80240602,-65.03493000
2.80496602,-60.56398000
2.80752602,-60.56398000
2.81008602,-60.56398000
2.81264602,-60.56398000
2.81520602,-60.56398000
2.81776602,-60.56398000
2.82032602,-56.09302000
2.82288602,-56.09302000
2.82544602,-51.62206000
2.82800602,-56.09302000
2.83056602,-51.62206000
2.83312602,-51.62206000
2.83568602,-51.62206000
2.83824602,-51.62206000
2.84080602,-51.62206000
2.84336602,-51.62206000
2.84592602,-47.15109000
2.84848602,-51.62206000
2.85104602,-47.15109000
2.85360602,-47.15109000
2.85616602,-42.68013000
2.85872602,-42.68013000
2.86128602,-42.68013000
2.86384602,-42.68013000
2.86640602,-42.68013000
2.86896602,-42.68013000
2.87152602,-38.20917000
2.87408602,-42.68013000
2.87664602,-38.20917000
2.87920602,-38.20917000
2.88176602,-38.20917000
2.88432602,-38.20917000
2.88688602,-38.20917000
2.88944602,-33.73821000
2.89200602,-33.73821000
2.89456602,-33.73821000
2.89712602,-33.73821000
2.89968602,-33.73821000
2.90224602,-33.73821000
2.90480602,-33.73821000
2.90736602,-33.73821000
2.90992602,-33.73821000
2.91248602,-33.73821000
2.91504602,-33.73821000
2.91760602,-33.73821000
2.92016602,-29.26725000
2.92272602,-29.26725000
2.92528602,-29.26725000
2.92784602,-29.26725000
2.93040602,-29.26725000
2.93296602,-29.26725000
2.93552602,-29.26725000
2.93808602,-29.26725000
2.94064602,-24.79629000
2.94320602,-24.79629000
2.94576602,-24.79629000
2.94832602,-24.79629000
2.95088602,-24.79629000
2.95344602,-24.79629000
2.95600602,-24.79629000
2.95856602,-24.79629000
2.96112602,-24.79629000
2.96368602,-24.79629000
2.96624602,-24.79629000
2.96880602,-24.79629000
2.97136602,-24.79629000
2.97392602,-24.79629000
2.97648602,-24.79629000
2.97904602,-24.79629000
2.98160602,-24.79629000
2.98416602,-24.79629000
2.98672602,-24.79629000
2.98928602,-24.79629000
2.99184602,-24.79629000
2.99440602,-24.79629000
2.99696602,-20.32533000
2.99952602,-24.79629000
3.00208602,-24.79629000
3.00464602,-20.32533000
3.00720602,-20.32533000
3.00976602,-24.79629000
3.01232602,-24.79629000
3.01488602,-24.79629000
3.01744602,-20.32533000
3.02000602,-24.79629000
3.02256602,-24.79629000
3.02512602,-24.79629000
3.02768602,-24.79629000
3.03024602,-24.79629000
3.03280602,-24.79629000
3.03536602,-24.79629000
3.03792602,-24.79629000
3.04048602,-24.79629000
3.04304602,-24.79629000
3.04560602,-24.79629000
3.04816602,-20.32533000
3.05072602,-24.79629000
3.05328602,-24.79629000
3.05584602,-24.79629000
3.05840602,-20.32533000
3.06096602,-20.32533000
3.06352602,-24.79629000
3.06608602,-24.79629000
3.06864602,-24.79629000
3.07120602,-24.79629000
3.07376602,-24.79629000
3.07632602,-24.79629000
3.07888602,-24.79629000
3.08144602,-24.79629000
3.08400602,-24.79629000
3.08656602,-24.79629000
3.08912602,-24.79629000
3.09168602,-24.79629000
3.09424602,-24.79629000
3.09680602,-24.79629000
3.09936602,-24.79629000
3.10192602,-24.79629000
3.10448602,-24.79629000
3.10704602,-24.79629000
3.10960602,-24.79629000
3.11216602,-24.79629000
3.11472602,-24.79629000
3.11728602,-24.79629000
3.11984602,-24.79629000
3.12240602,-24.79629000
3.12496602,-24.79629000
3.12752602,-24.79629000
3.13008602,-24.79629000
3.13264602,-24.79629000
3.13520602,-24.79629000
3.13776602,-24.79629000
3.14032602,-24.79629000
3.14288602,-24.79629000
3.14544602,-24.79629000
3.14800602,-24.79629000
3.15056602,-24.79629000
3.15312602,-24.79629000
3.15568602,-29.26725000
3.15824602,-24.79629000
3.16080602,-29.26725000
3.16336602,-24.79629000
3.16592602,-29.26725000
3.16848602,-24.79629000
3.17104602,-24.79629000
3.17360602,-29.26725000
3.17616602,-29.26725000
3.17872602,-29.26725000
3.18128602,-29.26725000
3.18384602,-29.26725000
3.18640602,-29.26725000
3.18896602,-29.26725000
3.19152602,-29.26725000
3.19408602,-29.26725000
3.19664602,-29.26725000
3.19920602,-33.73821000
3.20176602,-29.26725000
3.20432602,-29.26725000
3.20688602,-33.73821000
3.20944602,-29.26725000
3.21200602,-33.73821000
3.21456602,-33.73821000
3.21712602,-33.73821000
3.21968602,-33.73821000
3.22224602,-33.73821000
3.22480602,-33.73821000
3.22736602,-33.73821000
3.22992602,-33.73821000
3.23248602,-33.73821000
3.23504602,-33.73821000
3.23760602,-33.73821000
3.24016602,-33.73821000
3.24272602,-33.73821000
3.24528602,-33.73821000
3.24784602,-33.73821000
3.25040602,-33.73821000
3.25296602,-33.73821000
3.25552602,-33.73821000
3.25808602,-33.73821000
3.26064602,-33.73821000
3.26320602,-33.73821000
3.26576602,-33.73821000
3.26832602,-38.20917000
3.27088602,-38.20917000
3.27344602,-38.20917000
3.27600602,-38.20917000
3.27856602,-38.20917000
3.28112602,-38.20917000
3.28368602,-38.20917000
3.28624602,-38.20917000
3.28880602,-42.68013000
3.29136602,-42.68013000
3.29392602,-42.68013000
3.29648602,-42.68013000
3.29904602,-42.68013000
3.30160602,-42.68013000
3.30416602,-42.68013000
3.30672602,-42.68013000
3.30928602,-42.68013000
3.31184602,-42.68013000
3.31440602,-42.68013000
3.31696602,-42.68013000
3.31952602,-42.68013000
3.32208602,-42.68013000
3.32464602,-42.68013000
3.32720602,-42.68013000
3.32976602,-47.15109000
3.33232602,-47.15109000
3.33488602,-42.68013000
3.33744602,-47.15109000
3.34000602,-47.15109000
3.34256602,-47.15109000
3.34512602,-47.15109000
3.34768602,-47.15109000
3.35024602,-47.15109000
3.35280602,-51.62206000
3.35536602,-51.62206000
3.35792602,-51.62206000
3.36048602,-51.62206000
3.36304602,-51.62206000
3.36560602,-51.62206000
3.36816602,-51.62206000
3.37072602,-51.62206000
3.37328602,-51.62206000
3.37584602,-51.62206000
3.37840602,-51.62206000
3.38096602,-51.62206000
3.38352602,-51.62206000
3.38608602,-51.62206000
3.38864602,-51.62206000
3.39120602,-51.62206000
3.39376602,-51.62206000
3.39632602,-51.62206000
3.39888602,-51.62206000
3.40144602,-51.62206000
3.40400602,-51.62206000
3.40656602,-51.62206000
3.40912602,-51.62206000
3.41168602,-51.62206000
3.41424602,-51.62206000
3.41680602,-56.09302000
3.41936602,-56.09302000
3.42192602,-56.09302000
3.42448602,-56.09302000
3.42704602,-56.09302000
3.42960602,-56.09302000
3.43216602,-60.56398000
3.43472602,-60.56398000
3.43728602,-56.09302000
3.43984602,-60.56398000
3.44240602,-60.56398000
3.44496602,-60.56398000
3.44752602,-60.56398000
3.45008602,-60.56398000
3.45264602,-60.56398000
3.45520602,-60.56398000
3.45776602,-60.56398000
3.46032602,-60.56398000
3.46288602,-60.56398000
3.46544602,-60.56398000
3.46800602,-60.56398000
3.47056602,-60.56398000
3.47312602,-60.56398000
3.47568602,-60.56398000
3.47824602,-60.56398000
3.48080602,-60.56398000
3.48336602,-65.03493000
3.48592602,-65.03493000
3.48848602,-60.56398000
3.49104602,-65.03493000
3.49360602,-65.03493000
3.49616602,-65.03493000
3.49872602,-65.03493000
3.50128602,-65.03493000
3.50384602,-65.03493000
3.50640602,-65.03493000
3.50896602,-65.03493000
3.51152602,-65.03493000
3.51408602,-65.03493000
3.51664602,-69.50591000
3.51920602,-69.50591000
3.52176602,-69.50591000
3.52432602,-69.50591000
3.52688602,-69.50591000
3.52944602,-65.03493000
3.53200602,-69.50591000
3.53456602,-69.50591000
3.53712602,-69.50591000
3.53968602,-69.50591000
3.54224602,-69.50591000
3.54480602,-69.50591000
3.54736602,-69.50591000
3.54992602,-69.50591000
3.55248602,-69.50591000
3.55504602,-69.50591000
3.55760602,-69.50591000
3.56016602,-69.50591000
3.56272602,-69.50591000
3.56528602,-69.50591000
3.56784602,-69.50591000
3.57040602,-69.50591000
3.57296602,-69.50591000
3.57552602,-69.50591000
3.57808602,-69.50591000
3.58064602,-69.50591000
3.58320602,-69.50591000
3.58576602,-69.50591000
3.58832602,-69.50591000
3.59088602,-69.50591000
3.59344602,-69.50591000
3.59600602,-69.50591000
3.59856602,-69.50591000
3.60112602,-69.50591000
3.60368602,-69.50591000
3.60624602,-69.50591000
3.60880602,-69.50591000
3.61136602,-73.99212000
3.61392602,-73.99212000
3.61648602,-69.50591000
3.61904602,-73.99212000
3.62160602,-69.50591000
3.62416602,-69.50591000
3.62672602,-69.50591000
3.62928602,-69.50591000
3.63184602,-73.99212000
3.63440602,-73.99212000
3.63696602,-73.99212000
3.63952602,-73.99212000
3.64208602,-73.99212000
3.64464602,-73.99212000
3.64720602,-73.99212000
3.64976602,-73.99212000
3.65232602,-73.99212000
3.65488602,-73.99212000
3.65744602,-73.99212000
3.66000602,-73.99212000
3.66256602,-73.99212000
3.66512602,-69.50591000
3.66768602,-73.99212000
3.67024602,-73.99212000
3.67280602,-69.50591000
3.67536602,-69.50591000
3.67792602,-73.99212000
3.68048602,-69.50591000
3.68304602,-73.99212000
3.68560602,-73.99212000
3.68816602,-73.99212000
3.69072602,-73.99212000
3.69328602,-73.99212000
3.69584602,-73.99212000
3.69840602,-73.99212000
3.70096602,-73.99212000
3.70352602,-73.99212000
3.70608602,-73.99212000
3.70864602,-73.99212000
3.71120602,-73.99212000
3.71376602,-73.99212000
3.71632602,-73.99212000
3.71888602,-73.99212000
3.72144602,-73.99212000
3.72400602,-73.99212000
3.72656602,-73.99212000
3.72912602,-73.99212000
3.73168602,-69.50591000
3.73424602,-73.99212000
3.73680602,-69.50591000
3.73936602,-73.99212000
3.74192602,-73.99212000
3.74448602,-69.50591000
3.74704602,-73.99212000
3.74960602,-73.99212000
3.75216602,-73.99212000
3.75472602,-73.99212000
3.75728602,-73.99212000
3.75984602,-69.50591000
3.76240602,-73.99212000
3.76496602,-73.99212000
3.76752602,-73.99212000
3.77008602,-73.99212000
3.77264602,-73.99212000
3.77520602,-73.99212000
3.77776602,-73.99212000
3.78032602,-78.46308000
3.78288602,-73.99212000
3.78544602,-73.99212000
3.78800602,-73.99212000
3.79056602,-78.46308000
3.79312602,-73.99212000
3.79568602,-73.99212000
3.79824602,-73.99212000
3.80080602,-73.99212000
3.80336602,-73.99212000
3.80592602,-78.46308000
3.80848602,-73.99212000
3.81104602,-73.99212000
3.81360602,-78.46308000
3.81616602,-78.46308000
3.81872602,-73.99212000
3.82128602,-78.46308000
3.82384602,-78.46308000
3.82640602,-73.99212000
3.82896602,-73.99212000
3.83152602,-73.99212000
3.83408602,-78.46308000
3.83664602,-73.99212000
3.83920602,-73.99212000
3.84176602,-73.99212000
3.84432602,-73.99212000
3.84688602,-73.99212000
3.84944602,-73.99212000
3.85200602,-73.99212000
3.85456602,-73.99212000
3.85712602,-73.99212000
3.85968602,-73.99212000
3.86224602,-73.99212000
3.86480602,-73.99212000
3.86736602,-73.99212000
3.86992602,-73.99212000
3.87248602,-73.99212000
3.87504602,-78.46308000
3.87760602,-73.99212000
3.88016602,-73.99212000
3.88272602,-73.99212000
3.88528602,-73.99212000
3.88784602,-73.99212000
3.89040602,-73.99212000
3.89296602,-69.50591000
3.89552602,-73.99212000
3.89808602,-73.99212000
3.90064602,-73.99212000
3.90320602,-69.50591000
3.90576602,-69.50591000
3.90832602,-73.99212000
3.91088602,-69.50591000
3.91344602,-73.99212000
3.91600602,-69.50591000
3.91856602,-73.99212000
3.92112602,-73.99212000
3.92368602,-73.99212000
3.92624602,-73.99212000
3.92880602,-73.99212000
3.93136602,-73.99212000
3.93392602,-69.50591000
3.93648602,-69.50591000
3.93904602,-69.50591000
3.94160602,-73.99212000
3.94416602,-69.50591000
3.94672602,-69.50591000
3.94928602,-69.50591000
3.95184602,-73.99212000
3.95440602,-73.99212000
3.95696602,-69.50591000
3.95952602,-73.99212000
3.96208602,-69.50591000
3.96464602,-69.50591000
3.96720602,-69.50591000
3.96976602,-69.50591000
3.97232602,-69.50591000
3.97488602,-69.50591000
3.97744602,-69.50591000
3.98000602,-69.50591000
3.98256602,-69.50591000
3.98512602,-73.99212000
3.98768602,-69.50591000
3.99024602,-69.50591000
3.99280602,-69.50591000
3.99536602,-69.50591000
3.99792602,-69.50591000
4.00048602,-73.99212000
4.00304601,-73.99212000
4.00560601,-69.50591000
4.00816601,-69.50591000
4.01072601,-69.50591000
4.01328601,-69.50591000
4.01584601,-69.50591000
4.01840601,-69.50591000
4.02096601,-69.50591000
4.02352601,-69.50591000
4.02608601,-69.50591000
4.02864601,-69.50591000
4.03120601,-69.50591000
4.03376601,-69.50591000
4.03632601,-69.50591000
4.03888601,-69.50591000
4.04144601,-73.99212000
4.04400601,-69.50591000
4.04656601,-69.50591000
4.04912601,-69.50591000
4.05168601,-73.99212000
4.05424601,-69.50591000
4.05680601,-69.50591000
4.05936601,-69.50591000
4.06192601,-69.50591000
4.06448601,-69.50591000
4.06704601,-69.50591000
4.06960601,-69.50591000
4.07216601,-69.50591000
4.07472601,-69.50591000
4.07728601,-69.50591000
4.07984601,-73.99212000
4.08240601,-69.50591000
4.08496601,-69.50591000
4.08752601,-69.50591000
4.09008601,-69.50591000
4.09264601,-69.50591000
4.09520601,-69.50591000
4.09776601,-69.50591000
4.10032601,-69.50591000
4.10288601,-69.50591000
4.10544601,-73.99212000
4.10800601,-69.50591000
4.11056601,-69.50591000
4.11312601,-69.50591000
4.11568601,-69.50591000
4.11824601,-69.50591000
4.12080601,-69.50591000
4.12336601,-69.50591000
4.12592601,-69.50591000
4.12848601,-69.50591000
4.13104601,-69.50591000
4.13360601,-69.50591000
4.13616601,-69.50591000
4.13872601,-69.50591000
4.14128601,-69.50591000
4.14384601,-69.50591000
4.14640601,-69.50591000
4.14896601,-69.50591000
4.15152601,-69.50591000
4.15408601,-69.50591000
4.15664601,-69.50591000
4.15920601,-69.50591000
4.16176601,-69.50591000
4.16432601,-69.50591000
4.16688601,-69.50591000
4.16944601,-69.50591000
4.17200601,-69.50591000
4.17456601,-69.50591000
4.17712601,-69.50591000
4.17968601,-69.50591000
4.18224601,-73.99212000
4.18480601,-69.50591000
4.18736601,-69.50591000
4.18992601,-73.99212000
4.19248601,-73.99212000
4.19504601,-69.50591000
4.19760601,-69.50591000
4.20016601,-69.50591000
4.20272601,-69.50591000
4.20528601,-69.50591000
4.20784601,-69.50591000
4.21040601,-69.50591000
4.21296601,-69.50591000
4.21552601,-69.50591000
4.21808601,-69.50591000
4.22064601,-69.50591000
4.22320601,-69.50591000
4.22576601,-69.50591000
4.22832601,-69.50591000
4.23088601,-69.50591000
4.23344601,-69.50591000
4.23600601,-69.50591000
4.23856601,-69.50591000
4.24112601,-69.50591000
4.24368601,-69.50591000
4.24624601,-69.50591000
4.24880601,-69.50591000
4.25136601,-69.50591000
4.25392601,-69.50591000
4.25648601,-73.99212000
4.25904601,-69.50591000
4.26160601,-69.50591000
4.26416601,-69.50591000
4.26672601,-69.50591000
4.26928601,-69.50591000
4.27184601,-69.50591000
4.27440601,-69.50591000
4.27696601,-69.50591000
4.27952601,-69.50591000
4.28208601,-69.50591000
4.28464601,-69.50591000
4.28720601,-69.50591000
4.28976601,-69.50591000
4.29232601,-73.99212000
4.29488601,-69.50591000
4.29744601,-69.50591000
4.30000601,-69.50591000
4.30256601,-69.50591000
4.30512601,-69.50591000
4.30768601,-69.50591000
4.31024601,-69.50591000
4.31280601,-69.50591000
4.31536601,-69.50591000
4.31792601,-69.50591000
4.32048601,-69.50591000
4.32304601,-69.50591000
4.32560601,-69.50591000
4.32816601,-69.50591000
4.33072601,-69.50591000
4.33328601,-69.50591000
4.33584601,-69.50591000
4.33840601,-69.50591000
4.34096601,-69.50591000
4.34352601,-69.50591000
4.34608601,-69.50591000
4.34864601,-69.50591000
4.35120601,-69.50591000
4.35376601,-69.50591000
4.35632601,-69.50591000
4.35888601,-69.50591000
4.36144601,-69.50591000
4.36400601,-69.50591000
4.36656601,-69.50591000
4.36912601,-69.50591000
4.37168601,-69.50591000
4.37424601,-73.99212000
4.37680601,-69.50591000
4.37936601,-69.50591000
4.38192601,-69.50591000
4.38448601,-69.50591000
4.38704601,-69.50591000
4.38960601,-69.50591000
4.39216601,-69.50591000
4.39472601,-69.50591000
4.39728601,-69.50591000
4.39984601,-69.50591000
4.40240601,-69.50591000
4.40496601,-69.50591000
4.40752601,-69.50591000
4.41008601,-69.50591000
4.41264601,-73.99212000
4.41520601,-69.50591000
4.41776601,-69.50591000
4.42032601,-73.99212000
4.42288601,-69.50591000
4.42544601,-69.50591000
4.42800601,-69.50591000
4.43056601,-69.50591000
4.43312601,-69.50591000
4.43568601,-69.50591000
4.43824601,-69.50591000
4.44080601,-69.50591000
4.44336601,-69.50591000
4.44592601,-73.99212000
4.44848601,-69.50591000
4.45104601,-69.50591000
4.45360601,-69.50591000
4.45616601,-69.50591000
4.45872601,-69.50591000
4.46128601,-69.50591000
4.46384601,-69.50591000
4.46640601,-69.50591000
4.46896601,-69.50591000
4.47152601,-69.50591000
4.47408601,-69.50591000
4.47664601,-69.50591000
4.47920601,-69.50591000
4.48176601,-69.50591000
4.48432601,-69.50591000
4.48688601,-69.50591000
4.48944601,-69.50591000
4.49200601,-69.50591000
4.49456601,-69.50591000
4.49712601,-69.50591000
4.49968601,-69.50591000
4.50224601,-69.50591000
4.50480601,-69.50591000
4.50736601,-69.50591000
4.50992601,-69.50591000
4.51248601,-69.50591000
4.51504601,-69.50591000
4.51760601,-69.50591000
4.52016601,-69.50591000
4.52272601,-69.50591000
4.52528601,-69.50591000
4.52784601,-69.50591000
4.53040601,-69.50591000
4.53296601,-69.50591000
4.53552601,-69.50591000
4.53808601,-69.50591000
4.54064601,-69.50591000
4.54320601,-69.50591000
4.54576601,-69.50591000
4.54832601,-69.50591000
4.55088601,-69.50591000
4.55344601,-69.50591000
4.55600601,-69.50591000
4.55856601,-69.50591000
4.56112601,-69.50591000
4.56368601,-69.50591000
4.56624601,-69.50591000
4.56880601,-69.50591000
4.57136601,-69.50591000
4.57392601,-69.50591000
4.57648601,-69.50591000
4.57904601,-69.50591000
4.58160601,-69.50591000
4.58416601,-69.50591000
4.58672601,-69.50591000
4.58928601,-69.50591000
4.59184601,-69.50591000
4.59440601,-69.50591000
4.59696601,-69.50591000
4.59952601,-69.50591000
4.60208601,-69.50591000
4.60464601,-69.50591000
4.60720601,-69.50591000
4.60976601,-69.50591000
4.61232601,-69.50591000
4.61488601,-69.50591000
4.61744601,-69.50591000
4.62000601,-69.50591000
4.62256601,-69.50591000
4.62512601,-69.50591000
4.62768601,-69.50591000
4.63024601,-69.50591000
4.63280601,-65.03493000
4.63536601,-69.50591000
4.63792601,-69.50591000
4.64048601,-69.50591000
4.64304601,-69.50591000
4.64560601,-69.50591000
4.64816601,-69.50591000
4.65072601,-69.50591000
4.65328601,-69.50591000
4.65584601,-69.50591000
4.65840601,-69.50591000
4.66096601,-69.50591000
4.66352601,-69.50591000
4.66608601,-69.50591000
4.66864601,-69.50591000
4.67120601,-69.50591000
4.67376601,-69.50591000
4.67632601,-69.50591000
4.67888601,-69.50591000
4.68144601,-69.50591000
4.68400601,-69.50591000
4.68656601,-69.50591000
4.68912601,-69.50591000
4.69168601,-69.50591000
4.69424601,-69.50591000
4.69680601,-69.50591000
4.69936601,-69.50591000
4.70192601,-69.50591000
4.70448601,-69.50591000
4.70704601,-69.50591000
4.70960601,-73.99212000
4.71216601,-69.50591000
4.71472601,-69.50591000
4.71728601,-69.50591000
4.71984601,-69.50591000
4.72240601,-69.50591000
4.72496601,-69.50591000
4.72752601,-69.50591000
4.73008601,-73.99212000
4.73264601,-69.50591000
4.73520601,-69.50591000
4.73776601,-69.50591000
4.74032601,-73.99212000
4.74288601,-69.50591000
4.74544601,-69.50591000
4.74800601,-69.50591000
4.75056601,-73.99212000
4.75312601,-73.99212000
4.75568601,-69.50591000
4.75824601,-69.50591000
4.76080601,-73.99212000
4.76336601,-73.99212000
4.76592601,-73.99212000
4.76848601,-69.50591000
4.77104601,-73.99212000
4.77360601,-73.99212000
4.77616601,-73.99212000
4.77872601,-73.99212000
4.78128601,-73.99212000
4.78384601,-73.99212000
4.78640601,-73.99212000
4.78896601,-73.99212000
4.79152601,-69.50591000
4.79408601,-73.99212000
4.79664601,-73.99212000
4.79920601,-69.50591000
4.80176601,-73.99212000
4.80432601,-73.99212000
4.80688601,-73.99212000
4.80944601,-73.99212000
4.81200601,-73.99212000
4.81456601,-73.99212000
4.81712601,-73.99212000
4.81968601,-73.99212000
4.82224601,-73.99212000
4.82480601,-73.99212000
4.82736601,-73.99212000
4.82992601,-78.46308000
4.83248601,-73.99212000
4.83504601,-78.46308000
4.83760601,-78.46308000
4.84016601,-73.99212000
4.84272601,-73.99212000
4.84528601,-78.46308000
4.84784601,-73.99212000
4.85040601,-73.99212000
4.85296601,-73.99212000
4.85552601,-78.46308000
4.85808601,-73.99212000
4.86064601,-78.46308000
4.86320601,-73.99212000
4.86576601,-73.99212000
4.86832601,-78.46308000
4.87088601,-73.99212000
4.87344601,-78.46308000
4.87600601,-78.46308000
4.87856601,-78.46308000
4.88112601,-73.99212000
4.88368601,-73.99212000
4.88624601,-73.99212000
4.88880601,-73.99212000
4.89136601,-73.99212000
4.89392601,-78.46308000
4.89648601,-73.99212000
4.89904601,-73.99212000
4.90160601,-73.99212000
4.90416601,-73.99212000
4.90672601,-73.99212000
4.90928601,-73.99212000
4.91184601,-73.99212000
4.91440601,-69.50591000
4.91696601,-73.99212000
4.91952601,-73.99212000
4.92208601,-73.99212000
4.92464601,-73.99212000
4.92720601,-69.50591000
4.92976601,-69.50591000
4.93232601,-73.99212000
4.93488601,-69.50591000
4.93744601,-73.99212000
4.94000601,-73.99212000
4.94256601,-69.50591000
4.94512601,-73.99212000
4.94768601,-73.99212000
4.95024601,-73.99212000
4.95280601,-73.99212000
4.95536601,-73.99212000
4.95792601,-69.50591000
4.96048601,-73.99212000
4.96304601,-73.99212000
4.96560601,-69.50591000
4.96816601,-69.50591000
4.97072601,-73.99212000
4.97328601,-73.99212000
4.97584601,-69.50591000
4.97840601,-69.50591000
4.98096601,-73.99212000
4.98352601,-69.50591000
4.98608601,-69.50591000
4.98864601,-69.50591000
4.99120601,-73.99212000
4.99376601,-73.99212000
4.99632601,-69.50591000
4.99888601,-69.50591000
5.00144601,-73.99212000
5.00400601,-69.50591000
5.00656601,-73.99212000
5.00912601,-69.50591000
5.01168601,-73.99212000
5.01424601,-69.50591000
5.01680601,-69.50591000
5.01936601,-73.99212000
5.02192601,-69.50591000
5.02448601,-73.99212000
5.02704601,-73.99212000
5.02960601,-69.50591000
5.03216601,-69.50591000
5.03472601,-73.99212000
5.03728601,-73.99212000
5.03984601,-69.50591000
5.04240601,-73.99212000
5.04496601,-73.99212000
5.04752601,-69.50591000
5.05008601,-73.99212000
5.05264601,-69.50591000
5.05520601,-73.99212000
5.05776601,-69.50591000
5.06032601,-69.50591000
5.06288601,-69.50591000
5.06544601,-69.50591000
5.06800601,-69.50591000
5.07056601,-69.50591000
5.07312601,-69.50591000
5.07568601,-69.50591000
5.07824601,-69.50591000
5.08080601,-69.50591000
5.08336601,-73.99212000
5.08592601,-69.50591000
5.08848601,-69.50591000
5.09104601,-69.50591000
5.09360601,-69.50591000
5.09616601,-69.50591000
5.09872601,-69.50591000
5.10128601,-69.50591000
5.10384601,-73.99212000
5.10640601,-69.50591000
5.10896601,-69.50591000
5.11152601,-69.50591000
5.11408601,-69.50591000
5.11664601,-69.50591000
5.11920601,-69.50591000
5.12176601,-69.50591000
5.12432601,-69.50591000
5.12688601,-73.99212000
5.12944601,-69.50591000
5.13200601,-69.50591000
5.13456601,-69.50591000
5.13712601,-73.99212000
5.13968601,-69.50591000
5.14224601,-69.50591000
5.14480601,-73.99212000
5.14736601,-69.50591000
5.14992601,-69.50591000
5.15248601,-69.50591000
5.15504601,-73.99212000
5.15760601,-73.99212000
5.16016601,-73.99212000
5.16272601,-69.50591000
5.16528601,-73.99212000
5.16784601,-73.99212000
5.17040601,-69.50591000
5.17296601,-73.99212000
5.17552601,-73.99212000
5.17808601,-73.99212000
5.18064601,-69.50591000
5.18320601,-69.50591000
5.18576601,-73.99212000
5.18832601,-73.99212000
5.19088601,-73.99212000
5.19344601,-73.99212000
5.19600601,-69.50591000
5.19856601,-69.50591000
5.20112601,-73.99212000
5.20368601,-73.99212000
5.20624601,-73.99212000
5.20880601,-69.50591000
5.21136601,-73.99212000
5.21392601,-69.50591000
5.21648601,-73.99212000
5.21904601,-73.99212000
5.22160601,-73.99212000
5.22416601,-73.99212000
5.22672601,-73.99212000
5.22928601,-73.99212000
5.23184601,-73.99212000
5.23440601,-73.99212000
5.23696601,-73.99212000
5.23952601,-78.46308000
5.24208601,-78.46308000
5.24464601,-73.99212000
5.24720601,-73.99212000
5.24976601,-78.46308000
5.25232601,-78.46308000
5.25488601,-78.46308000
5.25744601,-78.46308000
5.26000601,-73.99212000
5.26256601,-73.99212000
5.26512601,-78.46308000
5.26768601,-78.46308000
5.27024601,-73.99212000
5.27280601,-78.46308000
5.27536601,-78.46308000
5.27792601,-73.99212000
5.28048601,-73.99212000
5.28304601,-73.99212000
5.28560601,-73.99212000
5.28816601,-73.99212000
5.29072601,-78.46308000
5.29328601,-73.99212000
5.29584601,-73.99212000
5.29840601,-73.99212000
5.30096601,-73.99212000
5.30352601,-73.99212000
5.30608601,-78.46308000
5.30864601,-78.46308000
5.31120601,-73.99212000
5.31376601,-73.99212000
5.31632601,-78.46308000
5.31888601,-73.99212000
5.32144601,-78.46308000
5.32400601,-78.46308000
5.32656601,-73.99212000
5.32912601,-73.99212000
5.33168601,-69.50591000
5.33424601,-73.99212000
5.33680601,-73.99212000
5.33936601,-73.99212000
5.34192601,-73.99212000
5.34448601,-73.99212000
5.34704601,-73.99212000
5.34960601,-73.99212000
5.35216601,-73.99212000
5.35472601,-73.99212000
5.35728601,-73.99212000
5.35984601,-78.46308000
5.36240601,-73.99212000
5.36496601,-73.99212000
5.36752601,-73.99212000
5.37008601,-73.99212000
5.37264601,-73.99212000
5.37520601,-73.99212000
5.37776601,-73.99212000
5.38032601,-78.46308000
5.38288601,-73.99212000
5.38544601,-73.99212000
5.38800601,-78.46308000
5.39056601,-78.46308000
5.39312601,-73.99212000
5.39568601,-73.99212000
5.39824601,-73.99212000
5.40080601,-73.99212000
5.40336601,-73.99212000
5.40592601,-73.99212000
5.40848601,-73.99212000
5.41104601,-73.99212000
5.41360601,-73.99212000
5.41616601,-73.99212000
5.41872601,-73.99212000
5.42128601,-73.99212000
5.42384601,-73.99212000
5.42640601,-73.99212000
5.42896601,-69.50591000
5.43152601,-73.99212000
5.43408601,-73.99212000
5.43664601,-73.99212000
5.43920601,-73.99212000
5.44176601,-73.99212000
5.44432601,-73.99212000
5.44688601,-73.99212000
5.44944601,-73.99212000
5.45200601,-73.99212000
5.45456601,-78.46308000
5.45712601,-73.99212000
5.45968601,-73.99212000
5.46224601,-73.99212000
5.46480601,-73.99212000
5.46736601,-73.99212000
5.46992601,-73.99212000
5.47248601,-73.99212000
5.47504601,-73.99212000
5.47760601,-73.99212000
5.48016601,-73.99212000
5.48272601,-73.99212000
5.48528601,-78.46308000
5.48784601,-73.99212000
5.49040601,-78.46308000
5.49296601,-78.46308000
5.49552601,-78.46308000
5.49808601,-73.99212000
5.50064601,-73.99212000
5.50320601,-78.46308000
5.50576601,-73.99212000
5.50832601,-78.46308000
5.51088601,-73.99212000
5.51344601,-73.99212000
5.51600601,-73.99212000
5.51856601,-73.99212000
5.52112601,-78.46308000
5.52368601,-78.46308000
5.52624601,-73.99212000
5.52880601,-78.46308000
5.53136601,-73.99212000
5.53392601,-78.46308000
5.53648601,-78.46308000
5.53904601,-73.99212000
5.54160601,-73.99212000
5.54416601,-78.46308000
5.54672601,-78.46308000
5.54928601,-73.99212000
5.55184601,-73.99212000
5.55440601,-78.46308000
5.55696601,-73.99212000
5.55952601,-73.99212000
5.56208601,-78.46308000
5.56464601,-73.99212000
5.56720601,-78.46308000
5.56976601,-73.99212000
5.57232601,-78.46308000
5.57488601,-73.99212000
5.57744601,-78.46308000
5.58000601,-73.99212000
5.58256601,-73.99212000
5.58512601,-73.99212000
5.58768601,-73.99212000
5.59024601,-73.99212000
5.59280601,-73.99212000
5.59536601,-73.99212000
5.59792601,-73.99212000
5.60048601,-73.99212000
5.60304601,-73.99212000
5.60560601,-73.99212000
5.60816601,-78.46308000
5.61072601,-73.99212000
5.61328601,-78.46308000
5.61584601,-69.50591000
5.61840601,-73.99212000
5.62096601,-78.46308000
5.62352601,-73.99212000
5.62608601,-73.99212000
5.62864601,-73.99212000
5.63120601,-73.99212000
5.63376601,-73.99212000
5.63632601,-73.99212000
5.63888601,-73.99212000
5.64144601,-73.99212000
5.64400601,-73.99212000
5.64656600,-73.99212000
5.64912600,-73.99212000
5.65168600,-73.99212000
5.65424600,-73.99212000
5.65680600,-73.99212000
5.65936600,-69.50591000
5.66192600,-69.50591000
5.66448600,-73.99212000
5.66704600,-73.99212000
5.66960600,-69.50591000
5.67216600,-69.50591000
5.67472600,-73.99212000
5.67728600,-73.99212000
5.67984600,-69.50591000
5.68240600,-73.99212000
5.68496600,-69.50591000
5.68752600,-73.99212000
5.69008600,-73.99212000
5.69264600,-73.99212000
5.69520600,-69.50591000
5.69776600,-73.99212000
5.70032600,-73.99212000
5.70288600,-69.50591000
5.70544600,-73.99212000
5.70800600,-73.99212000
5.71056600,-69.50591000
5.71312600,-69.50591000
5.71568600,-73.99212000
5.71824600,-69.50591000
5.72080600,-73.99212000
5.72336600,-73.99212000
5.72592600,-69.50591000
5.72848600,-73.99212000
5.73104600,-69.50591000
5.73360600,-69.50591000
5.73616600,-69.50591000
5.73872600,-69.50591000
5.74128600,-73.99212000
5.74384600,-69.50591000
5.74640600,-73.99212000
5.74896600,-73.99212000
5.75152600,-69.50591000
5.75408600,-69.50591000
5.75664600,-73.99212000
5.75920600,-73.99212000
5.76176600,-73.99212000
5.76432600,-69.50591000
5.76688600,-73.99212000
5.76944600,-69.50591000
5.77200600,-69.50591000
5.77456600,-69.50591000
5.77712600,-73.99212000
5.77968600,-69.50591000
5.78224600,-73.99212000
5.78480600,-73.99212000
5.78736600,-69.50591000
5.78992600,-69.50591000
5.79248600,-69.50591000
5.79504600,-73.99212000
5.79760600,-69.50591000
5.80016600,-73.99212000
5.80272600,-73.99212000
5.80528600,-69.50591000
5.80784600,-69.50591000
5.81040600,-69.50591000
5.81296600,-69.50591000
5.81552600,-73.99212000
5.81808600,-73.99212000
5.82064600,-69.50591000
5.82320600,-69.50591000
5.82576600,-69.50591000
5.82832600,-69.50591000
5.83088600,-69.50591000
5.83344600,-69.50591000
5.83600600,-69.50591000
5.83856600,-73.99212000
5.84112600,-69.50591000
5.84368600,-69.50591000
5.84624600,-69.50591000
5.84880600,-69.50591000
5.85136600,-69.50591000
5.85392600,-69.50591000
5.85648600,-69.50591000
5.85904600,-69.50591000
5.86160600,-69.50591000
5.86416600,-69.50591000
5.86672600,-73.99212000
5.86928600,-69.50591000
5.87184600,-69.50591000
5.87440600,-73.99212000
5.87696600,-69.50591000
5.87952600,-69.50591000
5.88208600,-69.50591000
5.88464600,-69.50591000
5.88720600,-69.50591000
5.88976600,-73.99212000
5.89232600,-69.50591000
5.89488600,-73.99212000
5.89744600,-69.50591000
5.90000600,-69.50591000
5.90256600,-69.50591000
5.90512600,-69.50591000
5.90768600,-69.50591000
5.91024600,-69.50591000
5.91280600,-69.50591000
5.91536600,-69.50591000
5.91792600,-69.50591000
5.92048600,-69.50591000
5.92304600,-69.50591000
5.92560600,-69.50591000
5.92816600,-69.50591000
5.93072600,-69.50591000
5.93328600,-69.50591000
5.93584600,-69.50591000
5.93840600,-69.50591000
5.94096600,-69.50591000
5.94352600,-69.50591000
5.94608600,-73.99212000
5.94864600,-69.50591000
5.95120600,-69.50591000
5.95376600,-69.50591000
5.95632600,-69.50591000
5.95888600,-69.50591000
5.96144600,-69.50591000
5.96400600,-69.50591000
5.96656600,-69.50591000
5.96912600,-69.50591000
5.97168600,-69.50591000
5.97424600,-69.50591000
5.97680600,-69.50591000
5.97936600,-69.50591000
5.98192600,-69.50591000
5.98448600,-69.50591000
5.98704600,-69.50591000
5.98960600,-69.50591000
5.99216600,-69.50591000
5.99472600,-69.50591000
5.99728600,-69.50591000
5.99984600,-69.50591000
6.00240600,-69.50591000
6.00496600,-69.50591000
6.00752600,-69.50591000
6.01008600,-69.50591000
6.01264600,-69.50591000
6.01520600,-69.50591000
6.01776600,-69.50591000
6.02032600,-69.50591000
6.02288600,-69.50591000
6.02544600,-69.50591000
6.02800600,-69.50591000
6.03056600,-69.50591000
6.03312600,-69.50591000
6.03568600,-69.50591000
6.03824600,-69.50591000
6.04080600,-69.50591000
6.04336600,-69.50591000
6.04592600,-69.50591000
6.04848600,-69.50591000
6.05104600,-73.99212000
6.05360600,-69.50591000
6.05616600,-69.50591000
6.05872600,-69.50591000
6.06128600,-69.50591000
6.06384600,-69.50591000
6.06640600,-69.50591000
6.06896600,-69.50591000
6.07152600,-69.50591000
6.07408600,-69.50591000
6.07664600,-69.50591000
6.07920600,-69.50591000
6.08176600,-69.50591000
6.08432600,-69.50591000
6.08688600,-69.50591000
6.08944600,-69.50591000
6.09200600,-69.50591000
6.09456600,-69.50591000
6.09712600,-73.99212000
6.09968600,-69.50591000
6.10224600,-69.50591000
6.10480600,-69.50591000
6.10736600,-69.50591000
6.10992600,-69.50591000
6.11248600,-69.50591000
6.11504600,-69.50591000
6.11760600,-69.50591000
6.12016600,-73.99212000
6.12272600,-69.50591000
6.12528600,-73.99212000
6.12784600,-69.50591000
6.13040600,-69.50591000
6.13296600,-69.50591000
6.13552600,-69.50591000
6.13808600,-69.50591000
6.14064600,-69.50591000
6.14320600,-69.50591000
6.14576600,-69.50591000
6.14832600,-69.50591000
6.15088600,-73.99212000
6.15344600,-69.50591000
6.15600600,-69.50591000
6.15856600,-73.99212000
6.16112600,-73.99212000
6.16368600,-73.99212000
6.16624600,-69.50591000
6.16880600,-69.50591000
6.17136600,-73.99212000
6.17392600,-69.50591000
6.17648600,-73.99212000
6.17904600,-69.50591000
6.18160600,-69.50591000
6.18416600,-73.99212000
6.18672600,-69.50591000
6.18928600,-69.50591000
6.19184600,-73.99212000
6.19440600,-69.50591000
6.19696600,-73.99212000
6.19952600,-69.50591000
6.20208600,-69.50591000
6.20464600,-69.50591000
6.20720600,-73.99212000
6.20976600,-73.99212000
6.21232600,-69.50591000
6.21488600,-73.99212000
6.21744600,-73.99212000
6.22000600,-73.99212000
6.22256600,-69.50591000
6.22512600,-69.50591000
6.22768600,-69.50591000
6.23024600,-69.50591000
6.23280600,-69.50591000
6.23536600,-73.99212000
6.23792600,-73.99212000
6.24048600,-73.99212000
6.24304600,-73.99212000
6.24560600,-69.50591000
6.24816600,-69.50591000
6.25072600,-69.50591000
6.25328600,-69.50591000
6.25584600,-69.50591000
6.25840600,-69.50591000
6.26096600,-69.50591000
6.26352600,-69.50591000
6.26608600,-69.50591000
6.26864600,-73.99212000
6.27120600,-69.50591000
6.27376600,-73.99212000
6.27632600,-73.99212000
6.27888600,-69.50591000
6.28144600,-73.99212000
6.28400600,-69.50591000
6.28656600,-73.99212000
6.28912600,-73.99212000
6.29168600,-69.50591000
6.29424600,-69.50591000
6.29680600,-69.50591000
6.29936600,-69.50591000
6.30192600,-73.99212000
6.30448600,-69.50591000
6.30704600,-69.50591000
6.30960600,-73.99212000
6.31216600,-73.99212000
6.31472600,-73.99212000
6.31728600,-69.50591000
6.31984600,-73.99212000
6.32240600,-73.99212000
6.32496600,-69.50591000
6.32752600,-73.99212000
6.33008600,-73.99212000
6.33264600,-73.99212000
6.33520600,-73.99212000
6.33776600,-73.99212000
6.34032600,-73.99212000
6.34288600,-73.99212000
6.34544600,-69.50591000
6.34800600,-73.99212000
6.35056600,-73.99212000
6.35312600,-73.99212000
6.35568600,-73.99212000
6.35824600,-73.99212000
6.36080600,-73.99212000
6.36336600,-73.99212000
6.36592600,-69.50591000
6.36848600,-73.99212000
6.37104600,-73.99212000
6.37360600,-73.99212000
6.37616600,-73.99212000
6.37872600,-69.50591000
6.38128600,-73.99212000
6.38384600,-73.99212000
6.38640600,-73.99212000
6.38896600,-73.99212000
6.39152600,-73.99212000
6.39408600,-73.99212000
6.39664600,-73.99212000
6.39920600,-73.99212000
6.40176600,-73.99212000
6.40432600,-73.99212000
6.40688600,-73.99212000
6.40944600,-73.99212000
6.41200600,-69.50591000
6.41456600,-69.50591000
6.41712600,-73.99212000
6.41968600,-73.99212000
6.42224600,-73.99212000
6.42480600,-73.99212000
6.42736600,-73.99212000
6.42992600,-73.99212000
6.43248600,-73.99212000
6.43504600,-69.50591000
6.43760600,-73.99212000
6.44016600,-69.50591000
6.44272600,-69.50591000
6.44528600,-73.99212000
6.44784600,-73.99212000
6.45040600,-73.99212000
6.45296600,-73.99212000
6.45552600,-73.99212000
6.45808600,-73.99212000
6.46064600,-73.99212000
6.46320600,-73.99212000
6.46576600,-73.99212000
6.46832600,-73.99212000
6.47088600,-73.99212000
6.47344600,-73.99212000
6.47600600,-73.99212000
6.47856600,-78.46308000
6.48112600,-69.50591000
6.48368600,-73.99212000
6.48624600,-73.99212000
6.48880600,-73.99212000
6.49136600,-73.99212000
6.49392600,-73.99212000
6.49648600,-73.99212000
6.49904600,-69.50591000
6.50160600,-73.99212000
6.50416600,-73.99212000
6.50672600,-73.99212000
6.50928600,-73.99212000
6.51184600,-73.99212000
6.51440600,-73.99212000
6.51696600,-73.99212000
6.51952600,-73.99212000
6.52208600,-73.99212000
6.52464600,-73.99212000
6.52720600,-73.99212000
6.52976600,-73.99212000
6.53232600,-73.99212000
6.53488600,-78.46308000
6.53744600,-73.99212000
6.54000600,-73.99212000
6.54256600,-69.50591000
6.54512600,-73.99212000
6.54768600,-73.99212000
6.55024600,-73.99212000
6.55280600,-73.99212000
6.55536600,-73.99212000
6.55792600,-73.99212000
6.56048600,-69.50591000
6.56304600,-73.99212000
6.56560600,-73.99212000
6.56816600,-73.99212000
6.57072600,-73.99212000
6.57328600,-73.99212000
6.57584600,-73.99212000
6.57840600,-69.50591000
6.58096600,-73.99212000
6.58352600,-69.50591000
6.58608600,-73.99212000
6.58864600,-73.99212000
6.59120600,-69.50591000
6.59376600,-73.99212000
6.59632600,-69.50591000
6.59888600,-69.50591000
6.60144600,-73.99212000
6.60400600,-73.99212000
6.60656600,-73.99212000
6.60912600,-69.50591000
6.61168600,-73.99212000
6.61424600,-73.99212000
6.61680600,-73.99212000
6.61936600,-73.99212000
6.62192600,-73.99212000
6.62448600,-73.99212000
6.62704600,-73.99212000
6.62960600,-73.99212000
6.63216600,-73.99212000
6.63472600,-69.50591000
6.63728600,-73.99212000
6.63984600,-73.99212000
6.64240600,-73.99212000
6.64496600,-69.50591000
6.64752600,-73.99212000
6.65008600,-73.99212000
6.65264600,-73.99212000
6.65520600,-69.50591000
6.65776600,-69.50591000
6.66032600,-69.50591000
6.66288600,-73.99212000
6.66544600,-73.99212000
6.66800600,-73.99212000
6.67056600,-73.99212000
6.67312600,-73.99212000
6.67568600,-73.99212000
6.67824600,-73.99212000
6.68080600,-73.99212000
6.68336600,-73.99212000
6.68592600,-73.99212000
6.68848600,-73.99212000
6.69104600,-69.50591000
6.69360600,-73.99212000
6.69616600,-73.99212000
6.69872600,-73.99212000
6.70128600,-73.99212000
6.70384600,-73.99212000
6.70640600,-73.99212000
6.70896600,-73.99212000
6.71152600,-78.46308000
6.71408600,-69.50591000
6.71664600,-73.99212000
6.71920600,-73.99212000
6.72176600,-73.99212000
6.72432600,-78.46308000
6.72688600,-78.46308000
6.72944600,-73.99212000
6.73200600,-73.99212000
6.73456600,-73.99212000
6.73712600,-73.99212000
6.73968600,-73.99212000
6.74224600,-78.46308000
6.74480600,-78.46308000
6.74736600,-78.46308000
6.74992600,-78.46308000
6.75248600,-78.46308000
6.75504600,-73.99212000
6.75760600,-78.46308000
6.76016600,-78.46308000
6.76272600,-78.46308000
6.76528600,-78.46308000
6.76784600,-78.46308000
6.77040600,-78.46308000
6.77296600,-78.46308000
6.77552600,-78.46308000
6.77808600,-78.46308000
6.78064600,-78.46308000
6.78320600,-78.46308000
6.78576600,-78.46308000
6.78832600,-78.46308000
6.79088600,-78.46308000
6.79344600,-78.46308000
6.79600600,-78.46308000
6.79856600,-78.46308000
6.80112600,-78.46308000
6.80368600,-78.46308000
6.80624600,-78.46308000
6.80880600,-78.46308000
6.81136600,-78.46308000
6.81392600,-78.46308000
6.81648600,-78.46308000
6.81904600,-82.93404000
6.82160600,-82.93404000
6.82416600,-82.93404000
6.82672600,-82.93404000
6.82928600,-82.93404000
6.83184600,-82.93404000
6.83440600,-82.93404000
6.83696600,-82.93404000
6.83952600,-82.93404000
6.84208600,-82.93404000
6.84464600,-82.93404000
6.84720600,-82.93404000
6.84976600,-87.40501000
6.85232600,-87.40501000
6.85488600,-87.40501000
6.85744600,-87.40501000
6.86000600,-87.40501000
6.86256600,-87.40501000
6.86512600,-87.40501000
6.86768600,-87.40501000
6.87024600,-87.40501000
6.87280600,-87.40501000
6.87536600,-87.40501000
6.87792600,-87.40501000
6.88048600,-87.40501000
6.88304600,-87.40501000
6.88560600,-91.87596000
6.88816600,-91.87596000
6.89072600,-91.87596000
6.89328600,-91.87596000
6.89584600,-87.40501000
6.89840600,-91.87596000
6.90096600,-96.34693000
6.90352600,-96.34693000
6.90608600,-96.34693000
6.90864600,-96.34693000
6.91120600,-96.34693000
6.91376600,-96.34693000
6.91632600,-96.34693000
6.91888600,-96.34693000
6.92144600,-96.34693000
6.92400600,-96.34693000
6.92656600,-100.81790000
6.92912600,-96.34693000
6.93168600,-96.34693000
6.93424600,-96.34693000
6.93680600,-100.81790000
6.93936600,-100.81790000
6.94192600,-100.81790000
6.94448600,-100.81790000
6.94704600,-100.81790000
6.94960600,-100.81790000
6.95216600,-100.81790000
6.95472600,-105.28880000
6.95728600,-105.28880000
6.95984600,-105.28880000
6.96240600,-105.28880000
6.96496600,-105.28880000
6.96752600,-105.28880000
6.97008600,-105.28880000
6.97264600,-105.28880000
6.97520600,-105.28880000
6.97776600,-105.28880000
6.98032600,-105.28880000
6.98288600,-105.28880000
6.98544600,-105.28880000
6.98800600,-105.28880000
6.99056600,-109.75980000
6.99312600,-109.75980000
6.99568600,-109.75980000
6.99824600,-114.23080000
7.00080600,-109.75980000
7.00336600,-109.75980000
7.00592600,-109.75980000
7.00848600,-109.75980000
7.01104600,-114.23080000
7.01360600,-114.23080000
7.01616600,-114.23080000
7.01872600,-114.23080000
7.02128600,-114.23080000
7.02384600,-114.23080000
7.02640600,-114.23080000
7.02896600,-114.23080000
7.03152600,-114.23080000
7.03408600,-114.23080000
7.03664600,-114.23080000
7.03920600,-114.23080000
7.04176600,-114.23080000
7.04432600,-114.23080000
7.04688600,-118.70170000
7.04944600,-114.23080000
7.05200600,-114.23080000
7.05456600,-114.23080000
7.05712600,-114.23080000
7.05968600,-114.23080000
7.06224600,-118.70170000
7.06480600,-114.23080000
7.06736600,-118.70170000
7.06992600,-118.70170000
7.07248600,-118.70170000
7.07504600,-118.70170000
7.07760600,-118.70170000
7.08016600,-118.70170000
7.08272600,-118.70170000
7.08528600,-118.70170000
7.08784600,-118.70170000
7.09040600,-118.70170000
7.09296600,-118.70170000
7.09552600,-118.70170000
7.09808600,-118.70170000
7.10064600,-118.70170000
7.10320600,-118.70170000
7.10576600,-118.70170000
7.10832600,-118.70170000
7.11088600,-118.70170000
7.11344600,-118.70170000
7.11600600,-118.70170000
7.11856600,-118.70170000
7.12112600,-118.70170000
7.12368600,-123.17270000
7.12624600,-123.17270000
7.12880600,-123.17270000
7.13136600,-123.17270000
7.13392600,-118.70170000
7.13648600,-118.70170000
7.13904600,-123.17270000
7.14160600,-118.70170000
7.14416600,-118.70170000
7.14672600,-118.70170000
7.14928600,-118.70170000
7.15184600,-123.17270000
7.15440600,-123.17270000
7.15696600,-123.17270000
7.15952600,-118.70170000
7.16208600,-123.17270000
7.16464600,-123.17270000
7.16720600,-118.70170000
7.16976600,-118.70170000
7.17232600,-123.17270000
7.17488600,-118.70170000
7.17744600,-118.70170000
7.18000600,-123.17270000
7.18256600,-118.70170000
7.18512600,-118.70170000
7.18768600,-118.70170000
7.19024600,-123.17270000
7.19280600,-123.17270000
7.19536600,-118.70170000
7.19792600,-123.17270000
7.20048600,-118.70170000
7.20304600,-118.70170000
7.20560600,-123.17270000
7.20816600,-118.70170000
7.21072600,-118.70170000
7.21328600,-118.70170000
7.21584600,-118.70170000
7.21840600,-118.70170000
7.22096600,-118.70170000
7.22352600,-118.70170000
7.22608600,-118.70170000
7.22864600,-118.70170000
7.23120600,-118.70170000
7.23376600,-118.70170000
7.23632600,-118.70170000
7.23888600,-118.70170000
7.24144600,-118.70170000
7.24400600,-118.70170000
7.24656600,-118.70170000
7.24912600,-118.70170000
7.25168600,-118.70170000
7.25424600,-118.70170000
7.25680600,-118.70170000
7.25936600,-118.70170000
7.26192600,-118.70170000
7.26448600,-118.70170000
7.26704600,-114.23080000
7.26960600,-118.70170000
7.27216600,-114.23080000
7.27472600,-114.23080000
7.27728600,-114.23080000
7.27984600,-114.23080000
7.28240600,-114.23080000
7.28496600,-114.23080000
7.28752600,-114.23080000
7.29008600,-114.23080000
7.29264599,-114.23080000
7.29520599,-114.23080000
7.29776599,-114.23080000
7.30032599,-114.23080000
7.30288599,-109.75980000
7.30544599,-114.23080000
7.30800599,-114.23080000
7.31056599,-109.75980000
7.31312599,-109.75980000
7.31568599,-109.75980000
7.31824599,-109.75980000
7.32080599,-109.75980000
7.32336599,-109.75980000
7.32592599,-114.23080000
7.32848599,-105.28880000
7.33104599,-105.28880000
7.33360599,-105.28880000
7.33616599,-109.75980000
7.33872599,-105.28880000
7.34128599,-105.28880000
7.34384599,-105.28880000
7.34640599,-105.28880000
7.34896599,-105.28880000
7.35152599,-105.28880000
7.35408599,-105.28880000
7.35664599,-105.28880000
7.35920599,-105.28880000
7.36176599,-105.28880000
7.36432599,-105.28880000
7.36688599,-105.28880000
7.36944599,-105.28880000
7.37200599,-105.28880000
7.37456599,-105.28880000
7.37712599,-105.28880000
7.37968599,-105.28880000
7.38224599,-100.81790000
7.38480599,-100.81790000
7.38736599,-100.81790000
7.38992599,-105.28880000
7.39248599,-100.81790000
7.39504599,-100.81790000
7.39760599,-100.81790000
7.40016599,-100.81790000
7.40272599,-100.81790000
7.40528599,-100.81790000
7.40784599,-100.81790000
7.41040599,-100.81790000
7.41296599,-100.81790000
7.41552599,-100.81790000
7.41808599,-96.34693000
7.42064599,-96.34693000
7.42320599,-96.34693000
7.42576599,-96.34693000
7.42832599,-96.34693000
7.43088599,-96.34693000
7.43344599,-96.34693000
7.43600599,-96.34693000
7.43856599,-96.34693000
7.44112599,-96.34693000
7.44368599,-96.34693000
7.44624599,-96.34693000
7.44880599,-96.34693000
7.45136599,-96.34693000
7.45392599,-96.34693000
7.45648599,-96.34693000
7.45904599,-96.34693000
7.46160599,-96.34693000
7.46416599,-91.87596000
7.46672599,-91.87596000
7.46928599,-96.34693000
7.47184599,-91.87596000
7.47440599,-91.87596000
7.47696599,-91.87596000
7.47952599,-91.87596000
7.48208599,-91.87596000
7.48464599,-91.87596000
7.48720599,-91.87596000
7.48976599,-87.40501000
7.49232599,-87.40501000
7.49488599,-87.40501000
7.49744599,-87.40501000
7.50000599,-87.40501000
7.50256599,-87.40501000
7.50512599,-87.40501000
7.50768599,-87.40501000
7.51024599,-87.40501000
7.51280599,-87.40501000
7.51536599,-87.40501000
7.51792599,-87.40501000
7.52048599,-87.40501000
7.52304599,-87.40501000
7.52560599,-87.40501000
7.52816599,-87.40501000
7.53072599,-87.40501000
7.53328599,-87.40501000
7.53584599,-87.40501000
7.53840599,-87.40501000
7.54096599,-87.40501000
7.54352599,-87.40501000
7.54608599,-87.40501000
7.54864599,-87.40501000
7.55120599,-87.40501000
7.55376599,-87.40501000
7.55632599,-82.93404000
7.55888599,-82.93404000
7.56144599,-82.93404000
7.56400599,-82.93404000
7.56656599,-82.93404000
7.56912599,-82.93404000
7.57168599,-82.93404000
7.57424599,-82.93404000
7.57680599,-82.93404000
7.57936599,-78.46308000
7.58192599,-82.93404000
7.58448599,-78.46308000
7.58704599,-82.93404000
7.58960599,-82.93404000
7.59216599,-82.93404000
7.59472599,-82.93404000
7.59728599,-78.46308000
7.59984599,-78.46308000
7.60240599,-78.46308000
7.60496599,-78.46308000
7.60752599,-78.46308000
7.61008599,-78.46308000
7.61264599,-78.46308000
7.61520599,-78.46308000
7.61776599,-78.46308000
7.62032599,-78.46308000
7.62288599,-78.46308000
7.62544599,-78.46308000
7.62800599,-78.46308000
7.63056599,-78.46308000
7.63312599,-78.46308000
7.63568599,-78.46308000
7.63824599,-78.46308000
7.64080599,-78.46308000
7.64336599,-78.46308000
7.64592599,-78.46308000
7.64848599,-78.46308000
7.65104599,-78.46308000
7.65360599,-78.46308000
7.65616599,-78.46308000
7.65872599,-78.46308000
7.66128599,-78.46308000
7.66384599,-78.46308000
7.66640599,-78.46308000
7.66896599,-78.46308000
7.67152599,-73.99212000
7.67408599,-78.46308000
7.67664599,-78.46308000
7.67920599,-73.99212000
7.68176599,-78.46308000
7.68432599,-78.46308000
7.68688599,-73.99212000
7.68944599,-78.46308000
7.69200599,-73.99212000
7.69456599,-73.99212000
7.69712599,-73.99212000
7.69968599,-78.46308000
7.70224599,-73.99212000
7.70480599,-73.99212000
7.70736599,-78.46308000
7.70992599,-73.99212000
7.71248599,-73.99212000
7.71504599,-73.99212000
7.71760599,-73.99212000
7.72016599,-73.99212000
7.72272599,-73.99212000
7.72528599,-73.99212000
7.72784599,-73.99212000
7.73040599,-73.99212000
7.73296599,-78.46308000
7.73552599,-73.99212000
7.73808599,-73.99212000
7.74064599,-73.99212000
7.74320599,-73.99212000
7.74576599,-69.50591000
7.74832599,-69.50591000
7.75088599,-73.99212000
7.75344599,-69.50591000
7.75600599,-69.50591000
7.75856599,-69.50591000
7.76112599,-69.50591000
7.76368599,-69.50591000
7.76624599,-73.99212000
7.76880599,-69.50591000
7.77136599,-69.50591000
7.77392599,-69.50591000
7.77648599,-69.50591000
7.77904599,-69.50591000
7.78160599,-69.50591000
7.78416599,-69.50591000
7.78672599,-69.50591000
7.78928599,-69.50591000
7.79184599,-69.50591000
7.79440599,-69.50591000
7.79696599,-69.50591000
7.79952599,-69.50591000
7.80208599,-69.50591000
7.80464599,-69.50591000
7.80720599,-69.50591000
7.80976599,-69.50591000
7.81232599,-69.50591000
7.81488599,-69.50591000
7.81744599,-69.50591000
7.82000599,-69.50591000
7.82256599,-69.50591000
7.82512599,-69.50591000
7.82768599,-69.50591000
7.83024599,-69.50591000
7.83280599,-69.50591000
7.83536599,-69.50591000
7.83792599,-69.50591000
7.84048599,-69.50591000
7.84304599,-69.50591000
7.84560599,-69.50591000
7.84816599,-69.50591000
7.85072599,-65.03493000
7.85328599,-65.03493000
7.85584599,-65.03493000
7.85840599,-65.03493000
7.86096599,-65.03493000
7.86352599,-65.03493000
7.86608599,-65.03493000
7.86864599,-65.03493000
7.87120599,-65.03493000
7.87376599,-60.56398000
7.87632599,-65.03493000
7.87888599,-65.03493000
7.88144599,-65.03493000
7.88400599,-60.56398000
7.88656599,-60.56398000
7.88912599,-60.56398000
7.89168599,-60.56398000
7.89424599,-60.56398000
7.89680599,-60.56398000
7.89936599,-60.56398000
7.90192599,-60.56398000
7.90448599,-56.09302000
7.90704599,-56.09302000
7.90960599,-56.09302000
7.91216599,-56.09302000
7.91472599,-56.09302000
7.91728599,-56.09302000
7.91984599,-51.62206000
7.92240599,-51.62206000
7.92496599,-51.62206000
7.92752599,-51.62206000
7.93008599,-51.62206000
7.93264599,-51.62206000
7.93520599,-51.62206000
7.93776599,-51.62206000
7.94032599,-51.62206000
7.94288599,-51.62206000
7.94544599,-51.62206000
7.94800599,-51.62206000
7.95056599,-51.62206000
7.95312599,-51.62206000
7.95568599,-47.15109000
7.95824599,-47.15109000
7.96080599,-47.15109000
7.96336599,-47.15109000
7.96592599,-47.15109000
7.96848599,-42.68013000
7.97104599,-42.68013000
7.97360599,-42.68013000
7.97616599,-42.68013000
7.97872599,-42.68013000
7.98128599,-42.68013000
7.98384599,-42.68013000
7.98640599,-42.68013000
7.98896599,-38.20917000
7.99152599,-38.20917000
7.99408599,-38.20917000
7.99664599,-38.20917000
7.99920599,-38.20917000
8.00176599,-38.20917000
8.00432599,-33.73821000
8.00688599,-33.73821000
8.00944599,-33.73821000
8.01200599,-33.73821000
8.01456599,-33.73821000
8.01712599,-33.73821000
8.01968599,-33.73821000
8.02224599,-33.73821000
8.02480599,-33.73821000
8.02736599,-33.73821000
8.02992599,-29.26725000
8.03248599,-33.73821000
8.03504599,-29.26725000
8.03760599,-29.26725000
8.04016599,-29.26725000
8.04272599,-24.79629000
8.04528599,-29.26725000
8.04784599,-24.79629000
8.05040599,-24.79629000
8.05296599,-24.79629000
8.05552599,-24.79629000
8.05808599,-29.26725000
8.06064599,-24.79629000
8.06320599,-24.79629000
8.06576599,-24.79629000
8.06832599,-24.79629000
8.07088599,-24.79629000
8.07344599,-24.79629000
8.07600599,-24.79629000
8.07856599,-24.79629000
8.08112599,-20.32533000
8.08368599,-24.79629000
8.08624599,-20.32533000
8.08880599,-20.32533000
8.09136599,-20.32533000
8.09392599,-20.32533000
8.09648599,-15.85437000
8.09904599,-20.32533000
8.10160599,-20.32533000
8.10416599,-20.32533000
8.10672599,-20.32533000
8.10928599,-20.32533000
8.11184599,-15.85437000
8.11440599,-15.85437000
8.11696599,-15.85437000
8.11952599,-15.85437000
8.12208599,-15.85437000
8.12464599,-15.85437000
8.12720599,-15.85437000
8.12976599,-15.85437000
8.13232599,-15.85437000
8.13488599,-15.85437000
8.13744599,-15.85437000
8.14000599,-15.85437000
8.14256599,-15.85437000
8.14512599,-15.85437000
8.14768599,-15.85437000
8.15024599,-15.85437000
8.15280599,-15.85437000
8.15536599,-15.85437000
8.15792599,-15.85437000
8.16048599,-15.85437000
8.16304599,-15.85437000
8.16560599,-15.85437000
8.16816599,-11.38340000
8.17072599,-15.85437000
8.17328599,-11.38340000
8.17584599,-11.38340000
8.17840599,-11.38340000
8.18096599,-15.85437000
8.18352599,-15.85437000
8.18608599,-15.85437000
8.18864599,-11.38340000
8.19120599,-15.85437000
8.19376599,-11.38340000
8.19632599,-11.38340000
8.19888599,-15.85437000
8.20144599,-11.38340000
8.20400599,-11.38340000
8.20656599,-11.38340000
8.20912599,-11.38340000
8.21168599,-11.38340000
8.21424599,-11.38340000
8.21680599,-11.38340000
8.21936599,-15.85437000
8.22192599,-11.38340000
8.22448599,-11.38340000
8.22704599,-15.85437000
8.22960599,-11.38340000
8.23216599,-15.85437000
8.23472599,-11.38340000
8.23728599,-11.38340000
8.23984599,-15.85437000
8.24240599,-15.85437000
8.24496599,-15.85437000
8.24752599,-15.85437000
8.25008599,-15.85437000
8.25264599,-15.85437000
8.25520599,-15.85437000
8.25776599,-15.85437000
8.26032599,-11.38340000
8.26288599,-15.85437000
8.26544599,-15.85437000
8.26800599,-15.85437000
8.27056599,-15.85437000
8.27312599,-15.85437000
8.27568599,-15.85437000
8.27824599,-15.85437000
8.28080599,-15.85437000
8.28336599,-15.85437000
8.28592599,-15.85437000
8.28848599,-15.85437000
8.29104599,-15.85437000
8.29360599,-15.85437000
8.29616599,-15.85437000
8.29872599,-15.85437000
8.30128599,-15.85437000
8.30384599,-15.85437000
8.30640599,-15.85437000
8.30896599,-15.85437000
8.31152599,-15.85437000
8.31408599,-15.85437000
8.31664599,-15.85437000
8.31920599,-15.85437000
8.32176599,-15.85437000
8.32432599,-15.85437000
8.32688599,-15.85437000
8.32944599,-15.85437000
8.33200599,-15.85437000
8.33456599,-15.85437000
8.33712599,-20.32533000
8.33968599,-20.32533000
8.34224599,-20.32533000
8.34480599,-15.85437000
8.34736599,-20.32533000
8.34992599,-20.32533000
8.35248599,-20.32533000
8.35504599,-24.79629000
8.35760599,-20.32533000
8.36016599,-20.32533000
8.36272599,-20.32533000
8.36528599,-24.79629000
8.36784599,-20.32533000
8.37040599,-20.32533000
8.37296599,-24.79629000
8.37552599,-24.79629000
8.37808599,-20.32533000
8.38064599,-24.79629000
8.38320599,-24.79629000
8.38576599,-24.79629000
8.38832599,-24.79629000
8.39088599,-24.79629000
8.39344599,-24.79629000
8.39600599,-24.79629000
8.39856599,-24.79629000
8.40112599,-24.79629000
8.40368599,-24.79629000
8.40624599,-24.79629000
8.40880599,-24.79629000
8.41136599,-24.79629000
8.41392599,-24.79629000
8.41648599,-24.79629000
8.41904599,-24.79629000
8.42160599,-29.26725000
8.42416599,-24.79629000
8.42672599,-24.79629000
8.42928599,-29.26725000
8.43184599,-24.79629000
8.43440599,-29.26725000
8.43696599,-29.26725000
8.43952599,-29.26725000
8.44208599,-29.26725000
8.44464599,-29.26725000
8.44720599,-29.26725000
8.44976599,-29.26725000
8.45232599,-29.26725000
8.45488599,-29.26725000
8.45744599,-33.73821000
8.46000599,-29.26725000
8.46256599,-33.73821000
8.46512599,-33.73821000
8.46768599,-29.26725000
8.47024599,-33.73821000
8.47280599,-33.73821000
8.47536599,-33.73821000
8.47792599,-33.73821000
8.48048599,-33.73821000
8.48304599,-33.73821000
8.48560599,-33.73821000
8.48816599,-33.73821000
8.49072599,-33.73821000
8.49328599,-33.73821000
8.49584599,-33.73821000
8.49840599,-33.73821000
8.50096599,-33.73821000
8.50352599,-33.73821000
8.50608599,-33.73821000
8.50864599,-33.73821000
8.51120599,-33.73821000
8.51376599,-33.73821000
8.51632599,-38.20917000
8.51888599,-38.20917000
8.52144599,-33.73821000
8.52400599,-38.20917000
8.52656599,-38.20917000
8.52912599,-38.20917000
8.53168599,-38.20917000
8.53424599,-38.20917000
8.53680599,-42.68013000
8.53936599,-42.68013000
8.54192599,-42.68013000
8.54448599,-42.68013000
8.54704599,-42.68013000
8.54960599,-42.68013000
8.55216599,-42.68013000
8.55472599,-42.68013000
8.55728599,-42.68013000
8.55984599,-42.68013000
8.56240599,-42.68013000
8.56496599,-42.68013000
8.56752599,-42.68013000
8.57008599,-42.68013000
8.57264599,-42.68013000
8.57520599,-42.68013000
8.57776599,-47.15109000
8.58032599,-47.15109000
8.58288599,-47.15109000
8.58544599,-47.15109000
8.58800599,-47.15109000
8.59056599,-47.15109000
8.59312599,-47.15109000
8.59568599,-47.15109000
8.59824599,-51.62206000
8.60080599,-51.62206000
8.60336599,-51.62206000
8.60592599,-51.62206000
8.60848599,-51.62206000
8.61104599,-51.62206000
8.61360599,-51.62206000
8.61616599,-51.62206000
8.61872599,-51.62206000
8.62128599,-51.62206000
8.62384599,-51.62206000
8.62640599,-51.62206000
8.62896599,-51.62206000
8.63152599,-51.62206000
8.63408599,-51.62206000
8.63664599,-56.09302000
8.63920599,-51.62206000
8.64176599,-51.62206000
8.64432599,-51.62206000
8.64688599,-56.09302000
8.64944599,-56.09302000
8.65200599,-60.56398000
8.65456599,-56.09302000
8.65712599,-60.56398000
8.65968599,-60.56398000
8.66224599,-60.56398000
8.66480599,-60.56398000
8.66736599,-56.09302000
8.66992599,-60.56398000
8.67248599,-60.56398000
8.67504599,-60.56398000
8.67760599,-60.56398000
8.68016599,-60.56398000
8.68272599,-60.56398000
8.68528599,-60.56398000
8.68784599,-60.56398000
8.69040599,-60.56398000
8.69296599,-60.56398000
8.69552599,-60.56398000
8.69808599,-60.56398000
8.70064599,-60.56398000
8.70320599,-60.56398000
8.70576599,-65.03493000
8.70832599,-65.03493000
8.71088599,-65.03493000
8.71344599,-65.03493000
8.71600599,-65.03493000
8.71856599,-65.03493000
8.72112599,-65.03493000
8.72368599,-65.03493000
8.72624599,-65.03493000
8.72880599,-65.03493000
8.73136599,-69.50591000
8.73392599,-69.50591000
8.73648599,-69.50591000
8.73904599,-69.50591000
8.74160599,-69.50591000
8.74416599,-69.50591000
8.74672599,-69.50591000
8.74928599,-69.50591000
8.75184599,-69.50591000
8.75440599,-69.50591000
8.75696599,-69.50591000
8.75952599,-69.50591000
8.76208599,-69.50591000
8.76464599,-69.50591000
8.76720599,-69.50591000
8.76976599,-69.50591000
8.77232599,-69.50591000
8.77488599,-69.50591000
8.77744599,-69.50591000
8.78000599,-69.50591000
8.78256599,-69.50591000
8.78512599,-69.50591000
8.78768599,-69.50591000
8.79024599,-73.99212000
8.79280599,-69.50591000
8.79536599,-69.50591000
8.79792599,-73.99212000
8.80048599,-73.99212000
8.80304599,-73.99212000
8.80560599,-73.99212000
8.80816599,-73.99212000
8.81072599,-73.99212000
8.81328599,-73.99212000
8.81584599,-73.99212000
8.81840599,-78.46308000
8.82096599,-73.99212000
8.82352599,-78.46308000
8.82608599,-78.46308000
8.82864599,-78.46308000
8.83120599,-78.46308000
8.83376599,-78.46308000
8.83632599,-78.46308000
8.83888599,-78.46308000
8.84144599,-78.46308000
8.84400599,-78.46308000
8.84656599,-78.46308000
8.84912599,-78.46308000
8.85168599,-78.46308000
8.85424599,-78.46308000
8.85680599,-78.46308000
8.85936599,-78.46308000
8.86192599,-78.46308000
8.86448599,-78.46308000
8.86704599,-78.46308000
8.86960599,-78.46308000
8.87216599,-82.93404000
8.87472599,-78.46308000
8.87728599,-78.46308000
8.87984599,-78.46308000
8.88240599,-82.93404000
8.88496599,-78.46308000
8.88752599,-78.46308000
8.89008599,-78.46308000
8.89264599,-78.46308000
8.89520599,-78.46308000
8.89776599,-82.93404000
8.90032599,-82.93404000
8.90288599,-82.93404000
8.90544599,-78.46308000
8.90800599,-82.93404000
8.91056599,-82.93404000
8.91312599,-82.93404000
8.91568599,-82.93404000
8.91824599,-82.93404000
8.92080599,-82.93404000
8.92336599,-82.93404000
8.92592599,-82.93404000
8.92848599,-82.93404000
8.93104599,-82.93404000
8.93360599,-82.93404000
8.93616599,-82.93404000
8.93872598,-82.93404000
8.94128598,-82.93404000
8.94384598,-82.93404000
8.94640598,-82.93404000
8.94896598,-82.93404000
8.95152598,-82.93404000
8.95408598,-82.93404000
8.95664598,-82.93404000
8.95920598,-87.40501000
8.96176598,-82.93404000
8.96432598,-82.93404000
8.96688598,-82.93404000
8.96944598,-82.93404000
8.97200598,-87.40501000
8.97456598,-87.40501000
8.97712598,-82.93404000
8.97968598,-82.93404000
8.98224598,-87.40501000
8.98480598,-87.40501000
8.98736598,-82.93404000
8.98992598,-87.40501000
8.99248598,-87.40501000
8.99504598,-87.40501000
8.99760598,-87.40501000
9.00016598,-87.40501000
9.00272598,-87.40501000
9.00528598,-87.40501000
9.00784598,-87.40501000
9.01040598,-87.40501000
9.01296598,-87.40501000
9.01552598,-87.40501000
9.01808598,-87.40501000
9.02064598,-87.40501000
9.02320598,-87.40501000
9.02576598,-87.40501000
9.02832598,-87.40501000
9.03088598,-87.40501000
9.03344598,-87.40501000
9.03600598,-87.40501000
9.03856598,-87.40501000
9.04112598,-87.40501000
9.04368598,-87.40501000
9.04624598,-87.40501000
9.04880598,-87.40501000
9.05136598,-87.40501000
9.05392598,-87.40501000
9.05648598,-87.40501000
9.05904598,-87.40501000
9.06160598,-87.40501000
9.06416598,-87.40501000
9.06672598,-87.40501000
9.06928598,-87.40501000
9.07184598,-87.40501000
9.07440598,-87.40501000
9.07696598,-87.40501000
9.07952598,-87.40501000
9.08208598,-87.40501000
9.08464598,-87.40501000
9.08720598,-87.40501000
9.08976598,-87.40501000
9.09232598,-87.40501000
9.09488598,-87.40501000
9.09744598,-87.40501000
9.10000598,-87.40501000
9.10256598,-87.40501000
9.10512598,-87.40501000
9.10768598,-87.40501000
9.11024598,-87.40501000
9.11280598,-87.40501000
9.11536598,-87.40501000
9.11792598,-87.40501000
9.12048598,-87.40501000
9.12304598,-87.40501000
9.12560598,-87.40501000
9.12816598,-87.40501000
9.13072598,-87.40501000
9.13328598,-87.40501000
9.13584598,-87.40501000
9.13840598,-87.40501000
9.14096598,-87.40501000
9.14352598,-87.40501000
9.14608598,-87.40501000
9.14864598,-87.40501000
9.15120598,-87.40501000
9.15376598,-87.40501000
9.15632598,-87.40501000
9.15888598,-87.40501000
9.16144598,-87.40501000
9.16400598,-87.40501000
9.16656598,-87.40501000
9.16912598,-87.40501000
9.17168598,-87.40501000
9.17424598,-87.40501000
9.17680598,-87.40501000
9.17936598,-87.40501000
9.18192598,-87.40501000
9.18448598,-87.40501000
9.18704598,-87.40501000
9.18960598,-87.40501000
9.19216598,-87.40501000
9.19472598,-87.40501000
9.19728598,-87.40501000
9.19984598,-87.40501000
9.20240598,-87.40501000
9.20496598,-87.40501000
9.20752598,-87.40501000
9.21008598,-87.40501000
9.21264598,-87.40501000
9.21520598,-87.40501000
9.21776598,-87.40501000
9.22032598,-87.40501000
9.22288598,-87.40501000
9.22544598,-87.40501000
9.22800598,-87.40501000
9.23056598,-87.40501000
9.23312598,-87.40501000
9.23568598,-87.40501000
9.23824598,-87.40501000
9.24080598,-87.40501000
9.24336598,-87.40501000
9.24592598,-87.40501000
9.24848598,-87.40501000
9.25104598,-87.40501000
9.25360598,-87.40501000
9.25616598,-87.40501000
9.25872598,-87.40501000
9.26128598,-87.40501000
9.26384598,-87.40501000
9.26640598,-87.40501000
9.26896598,-87.40501000
9.27152598,-87.40501000
9.27408598,-87.40501000
9.27664598,-87.40501000
9.27920598,-87.40501000
9.28176598,-87.40501000
9.28432598,-87.40501000
9.28688598,-87.40501000
9.28944598,-87.40501000
9.29200598,-87.40501000
9.29456598,-87.40501000
9.29712598,-87.40501000
9.29968598,-87.40501000
9.30224598,-87.40501000
9.30480598,-87.40501000
9.30736598,-87.40501000
9.30992598,-87.40501000
9.31248598,-87.40501000
9.31504598,-87.40501000
9.31760598,-87.40501000
9.32016598,-87.40501000
9.32272598,-87.40501000
9.32528598,-87.40501000
9.32784598,-87.40501000
9.33040598,-87.40501000
9.33296598,-87.40501000
9.33552598,-87.40501000
9.33808598,-87.40501000
9.34064598,-87.40501000
9.34320598,-87.40501000
9.34576598,-87.40501000
9.34832598,-87.40501000
9.35088598,-87.40501000
9.35344598,-87.40501000
9.35600598,-87.40501000
9.35856598,-87.40501000
9.36112598,-87.40501000
9.36368598,-87.40501000
9.36624598,-87.40501000
9.36880598,-87.40501000
9.37136598,-87.40501000
9.37392598,-87.40501000
9.37648598,-87.40501000
9.37904598,-87.40501000
9.38160598,-87.40501000
9.38416598,-82.93404000
9.38672598,-87.40501000
9.38928598,-87.40501000
9.39184598,-87.40501000
9.39440598,-87.40501000
9.39696598,-82.93404000
9.39952598,-82.93404000
9.40208598,-87.40501000
9.40464598,-87.40501000
9.40720598,-87.40501000
9.40976598,-87.40501000
9.41232598,-87.40501000
9.41488598,-82.93404000
9.41744598,-82.93404000
9.42000598,-82.93404000
9.42256598,-82.93404000
9.42512598,-82.93404000
9.42768598,-82.93404000
9.43024598,-82.93404000
9.43280598,-82.93404000
9.43536598,-82.93404000
9.43792598,-82.93404000
9.44048598,-82.93404000
9.44304598,-87.40501000
9.44560598,-82.93404000
9.44816598,-82.93404000
9.45072598,-82.93404000
9.45328598,-82.93404000
9.45584598,-82.93404000
9.45840598,-82.93404000
9.46096598,-82.93404000
9.46352598,-82.93404000
9.46608598,-82.93404000
9.46864598,-82.93404000
9.47120598,-82.93404000
9.47376598,-82.93404000
9.47632598,-82.93404000
9.47888598,-87.40501000
9.48144598,-82.93404000
9.48400598,-82.93404000
9.48656598,-82.93404000
9.48912598,-82.93404000
9.49168598,-82.93404000
9.49424598,-82.93404000
9.49680598,-82.93404000
9.49936598,-82.93404000
9.50192598,-82.93404000
9.50448598,-82.93404000
9.50704598,-82.93404000
9.50960598,-82.93404000
9.51216598,-82.93404000
9.51472598,-82.93404000
9.51728598,-82.93404000
9.51984598,-82.93404000
9.52240598,-82.93404000
9.52496598,-82.93404000
9.52752598,-82.93404000
9.53008598,-82.93404000
9.53264598,-82.93404000
9.53520598,-82.93404000
9.53776598,-82.93404000
9.54032598,-82.93404000
9.54288598,-82.93404000
9.54544598,-82.93404000
9.54800598,-82.93404000
9.55056598,-82.93404000
9.55312598,-82.93404000
9.55568598,-82.93404000
9.55824598,-82.93404000
9.56080598,-82.93404000
9.56336598,-82.93404000
9.56592598,-82.93404000
9.56848598,-82.93404000
9.57104598,-82.93404000
9.57360598,-82.93404000
9.57616598,-82.93404000
9.57872598,-82.93404000
9.58128598,-82.93404000
9.58384598,-82.93404000
9.58640598,-82.93404000
9.58896598,-82.93404000
9.59152598,-82.93404000
9.59408598,-82.93404000
9.59664598,-82.93404000
9.59920598,-82.93404000
9.60176598,-82.93404000
9.60432598,-82.93404000
9.60688598,-82.93404000
9.60944598,-82.93404000
9.61200598,-82.93404000
9.61456598,-78.46308000
9.61712598,-82.93404000
9.61968598,-78.46308000
9.62224598,-78.46308000
9.62480598,-82.93404000
9.62736598,-82.93404000
9.62992598,-78.46308000
9.63248598,-82.93404000
9.63504598,-82.93404000
9.63760598,-82.93404000
9.64016598,-78.46308000
9.64272598,-82.93404000
9.64528598,-78.46308000
9.64784598,-78.46308000
9.65040598,-78.46308000
9.65296598,-78.46308000
9.65552598,-78.46308000
9.65808598,-78.46308000
9.66064598,-78.46308000
9.66320598,-82.93404000
9.66576598,-78.46308000
9.66832598,-78.46308000
9.67088598,-78.46308000
9.67344598,-78.46308000
9.67600598,-78.46308000
9.67856598,-78.46308000
9.68112598,-82.93404000
9.68368598,-82.93404000
9.68624598,-78.46308000
9.68880598,-78.46308000
9.69136598,-78.46308000
9.69392598,-78.46308000
9.69648598,-78.46308000
9.69904598,-78.46308000
9.70160598,-78.46308000
9.70416598,-78.46308000
9.70672598,-78.46308000
9.70928598,-78.46308000
9.71184598,-78.46308000
9.71440598,-78.46308000
9.71696598,-78.46308000
9.71952598,-78.46308000
9.72208598,-78.46308000
9.72464598,-78.46308000
9.72720598,-78.46308000
9.72976598,-78.46308000
9.73232598,-78.46308000
9.73488598,-82.93404000
9.73744598,-78.46308000
9.74000598,-78.46308000
9.74256598,-78.46308000
9.74512598,-78.46308000
9.74768598,-78.46308000
9.75024598,-78.46308000
9.75280598,-82.93404000
9.75536598,-78.46308000
9.75792598,-78.46308000
9.76048598,-78.46308000
9.76304598,-78.46308000
9.76560598,-78.46308000
9.76816598,-78.46308000
9.77072598,-82.93404000
9.77328598,-78.46308000
9.77584598,-78.46308000
9.77840598,-82.93404000
9.78096598,-78.46308000
9.78352598,-78.46308000
9.78608598,-78.46308000
9.78864598,-78.46308000
9.79120598,-78.46308000
9.79376598,-78.46308000
9.79632598,-78.46308000
9.79888598,-78.46308000
9.80144598,-78.46308000
9.80400598,-78.46308000
9.80656598,-82.93404000
9.80912598,-78.46308000
9.81168598,-78.46308000
9.81424598,-78.46308000
9.81680598,-82.93404000
9.81936598,-78.46308000
9.82192598,-78.46308000
9.82448598,-82.93404000
9.82704598,-78.46308000
9.82960598,-78.46308000
9.83216598,-78.46308000
9.83472598,-78.46308000
9.83728598,-78.46308000
9.83984598,-78.46308000
9.84240598,-78.46308000
9.84496598,-78.46308000
9.84752598,-78.46308000
9.85008598,-78.46308000
9.85264598,-82.93404000
9.85520598,-78.46308000
9.85776598,-82.93404000
9.86032598,-78.46308000
9.86288598,-78.46308000
9.86544598,-78.46308000
9.86800598,-78.46308000
9.87056598,-78.46308000
9.87312598,-78.46308000
9.87568598,-78.46308000
9.87824598,-78.46308000
9.88080598,-78.46308000
9.88336598,-78.46308000
9.88592598,-78.46308000
9.88848598,-78.46308000
9.89104598,-78.46308000
9.89360598,-78.46308000
9.89616598,-78.46308000
9.89872598,-78.46308000
9.90128598,-78.46308000
9.90384598,-78.46308000
9.90640598,-78.46308000
9.90896598,-78.46308000
9.91152598,-78.46308000
9.91408598,-78.46308000
9.91664598,-78.46308000
9.91920598,-78.46308000
9.92176598,-78.46308000
9.92432598,-78.46308000
9.92688598,-78.46308000
9.92944598,-78.46308000
9.93200598,-78.46308000
9.93456598,-78.46308000
9.93712598,-78.46308000
9.93968598,-78.46308000
9.94224598,-78.46308000
9.94480598,-78.46308000
9.94736598,-78.46308000
9.94992598,-78.46308000
9.95248598,-78.46308000
9.95504598,-78.46308000
9.95760598,-78.46308000
9.96016598,-78.46308000
9.96272598,-78.46308000
9.96528598,-78.46308000
9.96784598,-78.46308000
9.97040598,-78.46308000
9.97296598,-78.46308000
9.97552598,-73.99212000
9.97808598,-78.46308000
9.98064598,-78.46308000
9.98320598,-78.46308000
9.98576598,-78.46308000
9.98832598,-78.46308000
9.99088598,-78.46308000
9.99344598,-78.46308000
9.99600598,-78.46308000
9.99856598,-78.46308000
10.00112598,-78.46308000
10.00368598,-78.46308000
10.00624598,-78.46308000
10.00880598,-78.46308000
10.01136598,-78.46308000
10.01392598,-78.46308000
10.01648598,-78.46308000
10.01904598,-78.46308000
10.02160598,-78.46308000
10.02416598,-78.46308000
10.02672598,-78.46308000
10.02928598,-78.46308000
10.03184598,-78.46308000
10.03440598,-78.46308000
10.03696598,-78.46308000
10.03952598,-78.46308000
10.04208598,-78.46308000
10.04464598,-78.46308000
10.04720598,-78.46308000
10.04976598,-78.46308000
10.05232598,-78.46308000
10.05488598,-78.46308000
10.05744598,-78.46308000
10.06000598,-78.46308000
10.06256598,-78.46308000
10.06512598,-78.46308000
10.06768598,-78.46308000
10.07024598,-78.46308000
10.07280598,-78.46308000
10.07536598,-78.46308000
10.07792598,-78.46308000
10.08048598,-78.46308000
10.08304598,-78.46308000
10.08560598,-78.46308000
10.08816598,-78.46308000
10.09072598,-78.46308000
10.09328598,-78.46308000
10.09584598,-78.46308000
10.09840598,-78.46308000
10.10096598,-78.46308000
10.10352598,-78.46308000
10.10608598,-78.46308000
10.10864598,-78.46308000
10.11120598,-78.46308000
10.11376598,-78.46308000
10.11632598,-78.46308000
10.11888598,-78.46308000
10.12144598,-78.46308000
10.12400598,-78.46308000
10.12656598,-78.46308000
10.12912598,-78.46308000
10.13168598,-73.99212000
10.13424598,-78.46308000
10.13680598,-78.46308000
10.13936598,-78.46308000
10.14192598,-78.46308000
10.14448598,-78.46308000
10.14704598,-78.46308000
10.14960598,-78.46308000
10.15216598,-78.46308000
10.15472598,-78.46308000
10.15728598,-78.46308000
10.15984598,-78.46308000
10.16240598,-78.46308000
10.16496598,-78.46308000
10.16752598,-78.46308000
10.17008598,-78.46308000
10.17264598,-78.46308000
10.17520598,-78.46308000
10.17776598,-78.46308000
10.18032598,-78.46308000
10.18288598,-78.46308000
10.18544598,-73.99212000
10.18800598,-78.46308000
10.19056598,-78.46308000
10.19312598,-78.46308000
10.19568598,-78.46308000
10.19824598,-78.46308000
10.20080598,-78.46308000
10.20336598,-78.46308000
10.20592598,-78.46308000
10.20848598,-78.46308000
10.21104598,-78.46308000
10.21360598,-78.46308000
10.21616598,-78.46308000
10.21872598,-78.46308000
10.22128598,-78.46308000
10.22384598,-78.46308000
10.22640598,-78.46308000
10.22896598,-78.46308000
10.23152598,-78.46308000
10.23408598,-78.46308000
10.23664598,-78.46308000
10.23920598,-78.46308000
10.24176598,-73.99212000
10.24432598,-78.46308000
10.24688598,-78.46308000
10.24944598,-78.46308000
10.25200598,-73.99212000
10.25456598,-73.99212000
10.25712598,-78.46308000
10.25968598,-78.46308000
10.26224598,-78.46308000
10.26480598,-73.99212000
10.26736598,-73.99212000
10.26992598,-73.99212000
10.27248598,-78.46308000
10.27504598,-78.46308000
10.27760598,-73.99212000
10.28016598,-78.46308000
10.28272598,-78.46308000
10.28528598,-73.99212000
10.28784598,-73.99212000
10.29040598,-73.99212000
10.29296598,-73.99212000
10.29552598,-73.99212000
10.29808598,-73.99212000
10.30064598,-73.99212000
10.30320598,-73.99212000
10.30576598,-73.99212000
10.30832598,-69.50591000
10.31088598,-73.99212000
10.31344598,-73.99212000
10.31600598,-73.99212000
10.31856598,-73.99212000
10.32112598,-73.99212000
10.32368598,-69.50591000
10.32624598,-69.50591000
10.32880598,-69.50591000
10.33136598,-73.99212000
10.33392598,-73.99212000
10.33648598,-73.99212000
10.33904598,-69.50591000
10.34160598,-73.99212000
10.34416598,-73.99212000
10.34672598,-69.50591000
10.34928598,-73.99212000
10.35184598,-69.50591000
10.35440598,-73.99212000
10.35696598,-69.50591000
10.35952598,-69.50591000
10.36208598,-73.99212000
10.36464598,-69.50591000
10.36720598,-69.50591000
10.36976598,-69.50591000
10.37232598,-69.50591000
10.37488598,-69.50591000
10.37744598,-73.99212000
10.38000598,-69.50591000
10.38256598,-69.50591000
10.38512598,-73.99212000
10.38768598,-73.99212000
10.39024598,-73.99212000
10.39280598,-73.99212000
10.39536598,-69.50591000
10.39792598,-73.99212000
10.40048598,-69.50591000
10.40304598,-69.50591000
10.40560598,-69.50591000
10.40816598,-69.50591000
10.41072598,-73.99212000
10.41328598,-69.50591000
10.41584598,-73.99212000
10.41840598,-69.50591000
10.42096598,-73.99212000
10.42352598,-73.99212000
10.42608598,-73.99212000
10.42864598,-69.50591000
10.43120598,-69.50591000
10.43376598,-73.99212000
10.43632598,-73.99212000
10.43888598,-73.99212000
10.44144598,-73.99212000
10.44400598,-73.99212000
10.44656598,-73.99212000
10.44912598,-73.99212000
10.45168598,-69.50591000
10.45424598,-73.99212000
10.45680598,-73.99212000
10.45936598,-73.99212000
10.46192598,-73.99212000
10.46448598,-73.99212000
10.46704598,-73.99212000
10.46960598,-73.99212000
10.47216598,-73.99212000
10.47472598,-73.99212000
10.47728598,-73.99212000
10.47984598,-73.99212000
10.48240598,-69.50591000
10.48496598,-73.99212000
10.48752598,-73.99212000
10.49008598,-73.99212000
10.49264598,-73.99212000
10.49520598,-73.99212000
10.49776598,-73.99212000
10.50032598,-73.99212000
10.50288598,-73.99212000
10.50544598,-73.99212000
10.50800598,-73.99212000
10.51056598,-73.99212000
10.51312598,-69.50591000
10.51568598,-73.99212000
10.51824598,-73.99212000
10.52080598,-73.99212000
10.52336598,-73.99212000
10.52592598,-73.99212000
10.52848598,-73.99212000
10.53104598,-73.99212000
10.53360598,-73.99212000
10.53616598,-73.99212000
10.53872598,-73.99212000
10.54128598,-73.99212000
10.54384598,-73.99212000
10.54640598,-73.99212000
10.54896598,-73.99212000
10.55152598,-69.50591000
10.55408598,-69.50591000
10.55664598,-73.99212000
10.55920598,-78.46308000
10.56176598,-73.99212000
10.56432598,-73.99212000
10.56688598,-73.99212000
10.56944598,-73.99212000
10.57200598,-73.99212000
10.57456598,-73.99212000
10.57712598,-73.99212000
10.57968598,-69.50591000
10.58224598,-73.99212000
10.58480597,-73.99212000
10.58736597,-73.99212000
10.58992597,-73.99212000
10.59248597,-73.99212000
10.59504597,-78.46308000
10.59760597,-73.99212000
10.60016597,-78.46308000
10.60272597,-73.99212000
10.60528597,-73.99212000
10.60784597,-73.99212000
10.61040597,-73.99212000
10.61296597,-73.99212000
10.61552597,-73.99212000
10.61808597,-78.46308000
10.62064597,-73.99212000
10.62320597,-73.99212000
10.62576597,-73.99212000
10.62832597,-73.99212000
10.63088597,-69.50591000
10.63344597,-73.99212000
10.63600597,-73.99212000
10.63856597,-73.99212000
10.64112597,-73.99212000
10.64368597,-73.99212000
10.64624597,-73.99212000
10.64880597,-73.99212000
10.65136597,-69.50591000
10.65392597,-73.99212000
10.65648597,-73.99212000
10.65904597,-69.50591000
10.66160597,-73.99212000
10.66416597,-73.99212000
10.66672597,-73.99212000
10.66928597,-73.99212000
10.67184597,-73.99212000
10.67440597,-73.99212000
10.67696597,-73.99212000
10.67952597,-73.99212000
10.68208597,-73.99212000
10.68464597,-73.99212000
10.68720597,-78.46308000
10.68976597,-69.50591000
10.69232597,-73.99212000
10.69488597,-73.99212000
10.69744597,-73.99212000
10.70000597,-73.99212000
10.70256597,-73.99212000
10.70512597,-73.99212000
10.70768597,-73.99212000
10.71024597,-73.99212000
10.71280597,-73.99212000
10.71536597,-73.99212000
10.71792597,-73.99212000
10.72048597,-73.99212000
10.72304597,-73.99212000
10.72560597,-73.99212000
10.72816597,-73.99212000
10.73072597,-73.99212000
10.73328597,-73.99212000
10.73584597,-73.99212000
10.73840597,-73.99212000
10.74096597,-78.46308000
10.74352597,-69.50591000
10.74608597,-78.46308000
10.74864597,-78.46308000
10.75120597,-73.99212000
10.75376597,-78.46308000
10.75632597,-73.99212000
10.75888597,-73.99212000
10.76144597,-78.46308000
10.76400597,-73.99212000
10.76656597,-73.99212000
10.76912597,-78.46308000
10.77168597,-73.99212000
10.77424597,-78.46308000
10.77680597,-73.99212000
10.77936597,-73.99212000
10.78192597,-78.46308000
10.78448597,-73.99212000
10.78704597,-78.46308000
10.78960597,-73.99212000
10.79216597,-73.99212000
10.79472597,-73.99212000
10.79728597,-73.99212000
10.79984597,-73.99212000
10.80240597,-78.46308000
10.80496597,-78.46308000
10.80752597,-73.99212000
10.81008597,-78.46308000
10.81264597,-73.99212000
10.81520597,-73.99212000
10.81776597,-73.99212000
10.82032597,-73.99212000
10.82288597,-78.46308000
10.82544597,-78.46308000
10.82800597,-73.99212000
10.83056597,-73.99212000
10.83312597,-73.99212000
10.83568597,-73.99212000
10.83824597,-73.99212000
10.84080597,-73.99212000
10.84336597,-73.99212000
10.84592597,-73.99212000
10.84848597,-73.99212000
10.85104597,-73.99212000
10.85360597,-78.46308000
10.85616597,-73.99212000
10.85872597,-73.99212000
10.86128597,-69.50591000
10.86384597,-78.46308000
10.86640597,-73.99212000
10.86896597,-73.99212000
10.87152597,-73.99212000
10.87408597,-73.99212000
10.87664597,-73.99212000
10.87920597,-73.99212000
10.88176597,-73.99212000
10.88432597,-73.99212000
10.88688597,-73.99212000
10.88944597,-73.99212000
10.89200597,-73.99212000
10.89456597,-73.99212000
10.89712597,-73.99212000
10.89968597,-69.50591000
10.90224597,-69.50591000
10.90480597,-73.99212000
10.90736597,-69.50591000
10.90992597,-73.99212000
10.91248597,-69.50591000
10.91504597,-69.50591000
10.91760597,-69.50591000
10.92016597,-69.50591000
10.92272597,-73.99212000
10.92528597,-73.99212000
10.92784597,-73.99212000
10.93040597,-69.50591000
10.93296597,-69.50591000
10.93552597,-69.50591000
10.93808597,-73.99212000
10.94064597,-69.50591000
10.94320597,-69.50591000
10.94576597,-69.50591000
10.94832597,-73.99212000
10.95088597,-73.99212000
10.95344597,-69.50591000
10.95600597,-73.99212000
10.95856597,-69.50591000
10.96112597,-73.99212000
10.96368597,-69.50591000
10.96624597,-69.50591000
10.96880597,-73.99212000
10.97136597,-69.50591000
10.97392597,-73.99212000
10.97648597,-73.99212000
10.97904597,-69.50591000
10.98160597,-69.50591000
10.98416597,-69.50591000
10.98672597,-69.50591000
10.98928597,-69.50591000
10.99184597,-69.50591000
10.99440597,-69.50591000
10.99696597,-69.50591000
10.99952597,-69.50591000
11.00208597,-73.99212000
11.00464597,-69.50591000
11.00720597,-73.99212000
11.00976597,-69.50591000
11.01232597,-73.99212000
11.01488597,-73.99212000
11.01744597,-69.50591000
11.02000597,-69.50591000
11.02256597,-69.50591000
11.02512597,-69.50591000
11.02768597,-69.50591000
11.03024597,-69.50591000
11.03280597,-69.50591000
11.03536597,-69.50591000
11.03792597,-69.50591000
11.04048597,-73.99212000
11.04304597,-69.50591000
11.04560597,-69.50591000
11.04816597,-73.99212000
11.05072597,-69.50591000
11.05328597,-73.99212000
11.05584597,-69.50591000
11.05840597,-73.99212000
11.06096597,-69.50591000
11.06352597,-73.99212000
11.06608597,-69.50591000
11.06864597,-73.99212000
11.07120597,-73.99212000
11.07376597,-69.50591000
11.07632597,-69.50591000
11.07888597,-69.50591000
11.08144597,-69.50591000
11.08400597,-73.99212000
11.08656597,-69.50591000
11.08912597,-69.50591000
11.09168597,-69.50591000
11.09424597,-69.50591000
11.09680597,-69.50591000
11.09936597,-69.50591000
11.10192597,-69.50591000
11.10448597,-73.99212000
11.10704597,-73.99212000
11.10960597,-73.99212000
11.11216597,-69.50591000
11.11472597,-69.50591000
11.11728597,-69.50591000
11.11984597,-69.50591000
11.12240597,-69.50591000
11.12496597,-73.99212000
11.12752597,-69.50591000
11.13008597,-69.50591000
11.13264597,-69.50591000
11.13520597,-73.99212000
11.13776597,-69.50591000
11.14032597,-69.50591000
11.14288597,-73.99212000
11.14544597,-69.50591000
11.14800597,-69.50591000
11.15056597,-69.50591000
11.15312597,-73.99212000
11.15568597,-69.50591000
11.15824597,-69.50591000
11.16080597,-69.50591000
11.16336597,-69.50591000
11.16592597,-73.99212000
11.16848597,-73.99212000
11.17104597,-69.50591000
11.17360597,-69.50591000
11.17616597,-69.50591000
11.17872597,-69.50591000
11.18128597,-73.99212000
11.18384597,-69.50591000
11.18640597,-69.50591000
11.18896597,-73.99212000
11.19152597,-69.50591000
11.19408597,-73.99212000
11.19664597,-69.50591000
11.19920597,-69.50591000
11.20176597,-69.50591000
11.20432597,-69.50591000
11.20688597,-69.50591000
11.20944597,-73.99212000
11.21200597,-69.50591000
11.21456597,-69.50591000
11.21712597,-69.50591000
11.21968597,-73.99212000
11.22224597,-73.99212000
11.22480597,-73.99212000
11.22736597,-69.50591000
11.22992597,-69.50591000
11.23248597,-69.50591000
11.23504597,-69.50591000
11.23760597,-69.50591000
11.24016597,-69.50591000
11.24272597,-69.50591000
11.24528597,-69.50591000
11.24784597,-69.50591000
11.25040597,-73.99212000
11.25296597,-69.50591000
11.25552597,-69.50591000
11.25808597,-73.99212000
11.26064597,-69.50591000
11.26320597,-69.50591000
11.26576597,-69.50591000
11.26832597,-73.99212000
11.27088597,-73.99212000
11.27344597,-69.50591000
11.27600597,-69.50591000
11.27856597,-69.50591000
11.28112597,-69.50591000
11.28368597,-73.99212000
11.28624597,-69.50591000
11.28880597,-69.50591000
11.29136597,-69.50591000
11.29392597,-69.50591000
11.29648597,-69.50591000
11.29904597,-69.50591000
11.30160597,-73.99212000
11.30416597,-69.50591000
11.30672597,-69.50591000
11.30928597,-69.50591000
11.31184597,-69.50591000
11.31440597,-69.50591000
11.31696597,-73.99212000
11.31952597,-69.50591000
11.32208597,-73.99212000
11.32464597,-69.50591000
11.32720597,-69.50591000
11.32976597,-69.50591000
11.33232597,-69.50591000
11.33488597,-69.50591000
11.33744597,-69.50591000
11.34000597,-69.50591000
11.34256597,-69.50591000
11.34512597,-69.50591000
11.34768597,-69.50591000
11.35024597,-69.50591000
11.35280597,-69.50591000
11.35536597,-69.50591000
11.35792597,-69.50591000
11.36048597,-69.50591000
11.36304597,-69.50591000
11.36560597,-69.50591000
11.36816597,-69.50591000
11.37072597,-69.50591000
11.37328597,-69.50591000
11.37584597,-69.50591000
11.37840597,-69.50591000
11.38096597,-69.50591000
11.38352597,-73.99212000
11.38608597,-69.50591000
11.38864597,-73.99212000
11.39120597,-69.50591000
11.39376597,-69.50591000
11.39632597,-73.99212000
11.39888597,-69.50591000
11.40144597,-69.50591000
11.40400597,-69.50591000
11.40656597,-73.99212000
11.40912597,-73.99212000
11.41168597,-73.99212000
11.41424597,-73.99212000
11.41680597,-69.50591000
11.41936597,-73.99212000
11.42192597,-69.50591000
11.42448597,-73.99212000
11.42704597,-73.99212000
11.42960597,-73.99212000
11.43216597,-73.99212000
11.43472597,-73.99212000
11.43728597,-73.99212000
11.43984597,-73.99212000
11.44240597,-73.99212000
11.44496597,-69.50591000
11.44752597,-73.99212000
11.45008597,-73.99212000
11.45264597,-73.99212000
11.45520597,-73.99212000
11.45776597,-73.99212000
11.46032597,-73.99212000
11.46288597,-73.99212000
11.46544597,-73.99212000
11.46800597,-73.99212000
11.47056597,-73.99212000
11.47312597,-73.99212000
11.47568597,-73.99212000
11.47824597,-78.46308000
11.48080597,-73.99212000
11.48336597,-73.99212000
11.48592597,-73.99212000
11.48848597,-73.99212000
11.49104597,-78.46308000
11.49360597,-73.99212000
11.49616597,-69.50591000
11.49872597,-69.50591000
11.50128597,-73.99212000
11.50384597,-73.99212000
11.50640597,-73.99212000
11.50896597,-69.50591000
11.51152597,-69.50591000
11.51408597,-73.99212000
11.51664597,-73.99212000
11.51920597,-73.99212000
11.52176597,-73.99212000
11.52432597,-73.99212000
11.52688597,-73.99212000
11.52944597,-73.99212000
11.53200597,-73.99212000
11.53456597,-73.99212000
11.53712597,-73.99212000
11.53968597,-78.46308000
11.54224597,-73.99212000
11.54480597,-69.50591000
11.54736597,-73.99212000
11.54992597,-69.50591000
11.55248597,-69.50591000
11.55504597,-73.99212000
11.55760597,-69.50591000
11.56016597,-78.46308000
11.56272597,-73.99212000
11.56528597,-73.99212000
11.56784597,-73.99212000
11.57040597,-73.99212000
11.57296597,-73.99212000
11.57552597,-73.99212000
11.57808597,-73.99212000
11.58064597,-73.99212000
11.58320597,-73.99212000
11.58576597,-73.99212000
11.58832597,-73.99212000
11.59088597,-73.99212000
11.59344597,-73.99212000
11.59600597,-73.99212000
11.59856597,-73.99212000
11.60112597,-73.99212000
11.60368597,-69.50591000
11.60624597,-73.99212000
11.60880597,-73.99212000
11.61136597,-69.50591000
11.61392597,-73.99212000
11.61648597,-73.99212000
11.61904597,-69.50591000
11.62160597,-73.99212000
11.62416597,-73.99212000
11.62672597,-73.99212000
11.62928597,-73.99212000
11.63184597,-73.99212000
11.63440597,-69.50591000
11.63696597,-73.99212000
11.63952597,-73.99212000
11.64208597,-73.99212000
11.64464597,-78.46308000
11.64720597,-73.99212000
11.64976597,-73.99212000
11.65232597,-73.99212000
11.65488597,-73.99212000
11.65744597,-73.99212000
11.66000597,-69.50591000
11.66256597,-78.46308000
11.66512597,-69.50591000
11.66768597,-73.99212000
11.67024597,-73.99212000
11.67280597,-73.99212000
11.67536597,-73.99212000
11.67792597,-69.50591000
11.68048597,-73.99212000
11.68304597,-73.99212000
11.68560597,-69.50591000
11.68816597,-69.50591000
11.69072597,-69.50591000
11.69328597,-73.99212000
11.69584597,-73.99212000
11.69840597,-73.99212000
11.70096597,-73.99212000
11.70352597,-69.50591000
11.70608597,-73.99212000
11.70864597,-73.99212000
11.71120597,-69.50591000
11.71376597,-73.99212000
11.71632597,-69.50591000
11.71888597,-78.46308000
11.72144597,-73.99212000
11.72400597,-73.99212000
11.72656597,-73.99212000
11.72912597,-73.99212000
11.73168597,-73.99212000
11.73424597,-73.99212000
11.73680597,-73.99212000
11.73936597,-73.99212000
11.74192597,-73.99212000
11.74448597,-69.50591000
11.74704597,-73.99212000
11.74960597,-69.50591000
11.75216597,-73.99212000
11.75472597,-73.99212000
11.75728597,-69.50591000
11.75984597,-69.50591000
11.76240597,-73.99212000
11.76496597,-69.50591000
11.76752597,-69.50591000
11.77008597,-73.99212000
11.77264597,-69.50591000
11.77520597,-73.99212000
11.77776597,-73.99212000
11.78032597,-73.99212000
11.78288597,-73.99212000
11.78544597,-69.50591000
11.78800597,-69.50591000
11.79056597,-69.50591000
11.79312597,-73.99212000
11.79568597,-73.99212000
11.79824597,-69.50591000
11.80080597,-73.99212000
11.80336597,-73.99212000
11.80592597,-73.99212000
11.80848597,-69.50591000
11.81104597,-73.99212000
11.81360597,-69.50591000
11.81616597,-69.50591000
11.81872597,-73.99212000
11.82128597,-73.99212000
11.82384597,-73.99212000
11.82640597,-69.50591000
11.82896597,-69.50591000
11.83152597,-73.99212000
11.83408597,-69.50591000
11.83664597,-69.50591000
11.83920597,-69.50591000
11.84176597,-73.99212000
11.84432597,-73.99212000
11.84688597,-73.99212000
11.84944597,-69.50591000
11.85200597,-69.50591000
11.85456597,-69.50591000
11.85712597,-73.99212000
11.85968597,-69.50591000
11.86224597,-73.99212000
11.86480597,-69.50591000
11.86736597,-73.99212000
11.86992597,-69.50591000
11.87248597,-73.99212000
11.87504597,-73.99212000
11.87760597,-69.50591000
11.88016597,-73.99212000
11.88272597,-73.99212000
11.88528597,-69.50591000
11.88784597,-69.50591000
11.89040597,-73.99212000
11.89296597,-69.50591000
11.89552597,-73.99212000
11.89808597,-73.99212000
11.90064597,-69.50591000
11.90320597,-69.50591000
11.90576597,-73.99212000
11.90832597,-69.50591000
11.91088597,-73.99212000
11.91344597,-73.99212000
11.91600597,-69.50591000
11.91856597,-69.50591000
11.92112597,-73.99212000
11.92368597,-69.50591000
11.92624597,-73.99212000
11.92880597,-69.50591000
11.93136597,-69.50591000
11.93392597,-69.50591000
11.93648597,-69.50591000
11.93904597,-69.50591000
11.94160597,-73.99212000
11.94416597,-73.99212000
11.94672597,-69.50591000
11.94928597,-73.99212000
11.95184597,-69.50591000
11.95440597,-73.99212000
11.95696597,-73.99212000
11.95952597,-73.99212000
11.96208597,-69.50591000
11.96464597,-73.99212000
11.96720597,-73.99212000
11.96976597,-73.99212000
11.97232597,-73.99212000
11.97488597,-73.99212000
11.97744597,-73.99212000
11.98000597,-73.99212000
11.98256597,-73.99212000
11.98512597,-73.99212000
11.98768597,-73.99212000
11.99024597,-69.50591000
11.99280597,-73.99212000
11.99536597,-69.50591000
11.99792597,-73.99212000
12.00048597,-73.99212000
12.00304597,-69.50591000
12.00560597,-73.99212000
12.00816597,-73.99212000
12.01072597,-69.50591000
12.01328597,-69.50591000
12.01584597,-69.50591000
12.01840597,-69.50591000
12.02096597,-69.50591000
12.02352597,-69.50591000
12.02608597,-69.50591000
12.02864597,-69.50591000
12.03120597,-73.99212000
12.03376597,-73.99212000
12.03632597,-73.99212000
12.03888597,-69.50591000
12.04144597,-69.50591000
12.04400597,-73.99212000
12.04656597,-73.99212000
12.04912597,-73.99212000
12.05168597,-73.99212000
12.05424597,-73.99212000
12.05680597,-73.99212000
12.05936597,-73.99212000
12.06192597,-73.99212000
12.06448597,-69.50591000
12.06704597,-73.99212000
12.06960597,-73.99212000
12.07216597,-69.50591000
12.07472597,-69.50591000
12.07728597,-73.99212000
12.07984597,-69.50591000
12.08240597,-69.50591000
12.08496597,-73.99212000
12.08752597,-69.50591000
12.09008597,-73.99212000
12.09264597,-69.50591000
12.09520597,-69.50591000
12.09776597,-73.99212000
12.10032597,-73.99212000
12.10288597,-73.99212000
12.10544597,-69.50591000
12.10800597,-69.50591000
12.11056597,-73.99212000
12.11312597,-73.99212000
12.11568597,-69.50591000
12.11824597,-73.99212000
12.12080597,-73.99212000
12.12336597,-69.50591000
12.12592597,-69.50591000
12.12848597,-73.99212000
12.13104597,-69.50591000
12.13360597,-73.99212000
12.13616597,-73.99212000
12.13872597,-69.50591000
12.14128597,-69.50591000
12.14384597,-73.99212000
12.14640597,-73.99212000
12.14896597,-73.99212000
12.15152597,-73.99212000
12.15408597,-73.99212000
12.15664597,-73.99212000
12.15920597,-69.50591000
12.16176597,-73.99212000
12.16432597,-73.99212000
12.16688597,-69.50591000
12.16944597,-73.99212000
12.17200597,-73.99212000
12.17456597,-73.99212000
12.17712597,-69.50591000
12.17968597,-69.50591000
12.18224597,-73.99212000
12.18480597,-73.99212000
12.18736597,-73.99212000
12.18992597,-73.99212000
12.19248597,-73.99212000
12.19504597,-73.99212000
12.19760597,-69.50591000
12.20016597,-73.99212000
12.20272597,-73.99212000
12.20528597,-73.99212000
12.20784597,-73.99212000
12.21040597,-73.99212000
12.21296597,-73.99212000
12.21552597,-73.99212000
12.21808597,-73.99212000
12.22064597,-73.99212000
12.22320597,-73.99212000
12.22576597,-73.99212000
12.22832596,-73.99212000
12.23088596,-73.99212000
12.23344596,-78.46308000
12.23600596,-73.99212000
12.23856596,-73.99212000
12.24112596,-78.46308000
12.24368596,-73.99212000
12.24624596,-73.99212000
12.24880596,-73.99212000
12.25136596,-73.99212000
12.25392596,-69.50591000
12.25648596,-73.99212000
12.25904596,-73.99212000
12.26160596,-73.99212000
12.26416596,-73.99212000
12.26672596,-73.99212000
12.26928596,-73.99212000
12.27184596,-73.99212000
12.27440596,-73.99212000
12.27696596,-73.99212000
12.27952596,-73.99212000
12.28208596,-73.99212000
12.28464596,-78.46308000
12.28720596,-73.99212000
12.28976596,-73.99212000
12.29232596,-73.99212000
12.29488596,-73.99212000
12.29744596,-73.99212000
12.30000596,-73.99212000
12.30256596,-73.99212000
12.30512596,-78.46308000
12.30768596,-73.99212000
12.31024596,-78.46308000
12.31280596,-73.99212000
12.31536596,-73.99212000
12.31792596,-73.99212000
12.32048596,-73.99212000
12.32304596,-73.99212000
12.32560596,-73.99212000
12.32816596,-73.99212000
12.33072596,-73.99212000
12.33328596,-73.99212000
12.33584596,-73.99212000
12.33840596,-69.50591000
12.34096596,-73.99212000
12.34352596,-73.99212000
12.34608596,-78.46308000
12.34864596,-73.99212000
12.35120596,-73.99212000
12.35376596,-73.99212000
12.35632596,-73.99212000
12.35888596,-73.99212000
12.36144596,-73.99212000
12.36400596,-73.99212000
12.36656596,-73.99212000
12.36912596,-73.99212000
12.37168596,-73.99212000
12.37424596,-73.99212000
12.37680596,-78.46308000
12.37936596,-73.99212000
12.38192596,-73.99212000
12.38448596,-73.99212000
12.38704596,-73.99212000
12.38960596,-73.99212000
12.39216596,-73.99212000
12.39472596,-69.50591000
12.39728596,-73.99212000
12.39984596,-73.99212000
12.40240596,-73.99212000
12.40496596,-73.99212000
12.40752596,-73.99212000
12.41008596,-73.99212000
12.41264596,-73.99212000
12.41520596,-73.99212000
12.41776596,-73.99212000
12.42032596,-73.99212000
12.42288596,-73.99212000
12.42544596,-69.50591000
12.42800596,-73.99212000
12.43056596,-69.50591000
12.43312596,-73.99212000
12.43568596,-73.99212000
12.43824596,-69.50591000
12.44080596,-73.99212000
12.44336596,-73.99212000
12.44592596,-73.99212000
12.44848596,-73.99212000
12.45104596,-73.99212000
12.45360596,-73.99212000
12.45616596,-73.99212000
12.45872596,-73.99212000
12.46128596,-69.50591000
12.46384596,-73.99212000
12.46640596,-69.50591000
12.46896596,-73.99212000
12.47152596,-73.99212000
12.47408596,-73.99212000
12.47664596,-69.50591000
12.47920596,-69.50591000
12.48176596,-69.50591000
12.48432596,-73.99212000
12.48688596,-69.50591000
12.48944596,-69.50591000
12.49200596,-73.99212000
12.49456596,-69.50591000
12.49712596,-73.99212000
12.49968596,-73.99212000
12.50224596,-69.50591000
12.50480596,-69.50591000
12.50736596,-73.99212000
12.50992596,-69.50591000
12.51248596,-73.99212000
12.51504596,-69.50591000
12.51760596,-69.50591000
12.52016596,-69.50591000
12.52272596,-73.99212000
12.52528596,-69.50591000
12.52784596,-73.99212000
12.53040596,-69.50591000
12.53296596,-69.50591000
12.53552596,-69.50591000
12.53808596,-69.50591000
12.54064596,-69.50591000
12.54320596,-69.50591000
12.54576596,-69.50591000
12.54832596,-73.99212000
12.55088596,-73.99212000
12.55344596,-69.50591000
12.55600596,-69.50591000
12.55856596,-73.99212000
12.56112596,-69.50591000
12.56368596,-69.50591000
12.56624596,-69.50591000
12.56880596,-69.50591000
12.57136596,-73.99212000
12.57392596,-69.50591000
12.57648596,-73.99212000
12.57904596,-69.50591000
12.58160596,-69.50591000
12.58416596,-69.50591000
12.58672596,-69.50591000
12.58928596,-69.50591000
12.59184596,-69.50591000
12.59440596,-69.50591000
12.59696596,-69.50591000
12.59952596,-73.99212000
12.60208596,-69.50591000
12.60464596,-69.50591000
12.60720596,-69.50591000
12.60976596,-69.50591000
12.61232596,-69.50591000
12.61488596,-69.50591000
12.61744596,-69.50591000
12.62000596,-69.50591000
12.62256596,-69.50591000
12.62512596,-69.50591000
12.62768596,-73.99212000
12.63024596,-73.99212000
12.63280596,-73.99212000
12.63536596,-69.50591000
12.63792596,-73.99212000
12.64048596,-69.50591000
12.64304596,-69.50591000
12.64560596,-69.50591000
12.64816596,-69.50591000
12.65072596,-69.50591000
12.65328596,-69.50591000
12.65584596,-73.99212000
12.65840596,-69.50591000
12.66096596,-69.50591000
12.66352596,-69.50591000
12.66608596,-69.50591000
12.66864596,-69.50591000
12.67120596,-73.99212000
12.67376596,-69.50591000
12.67632596,-73.99212000
12.67888596,-69.50591000
12.68144596,-73.99212000
12.68400596,-69.50591000
12.68656596,-73.99212000
12.68912596,-73.99212000
12.69168596,-73.99212000
12.69424596,-69.50591000
12.69680596,-69.50591000
12.69936596,-69.50591000
12.70192596,-69.50591000
12.70448596,-73.99212000
12.70704596,-69.50591000
12.70960596,-69.50591000
12.71216596,-69.50591000
12.71472596,-69.50591000
12.71728596,-73.99212000
12.71984596,-69.50591000
12.72240596,-69.50591000
12.72496596,-69.50591000
12.72752596,-69.50591000
12.73008596,-69.50591000
12.73264596,-69.50591000
12.73520596,-69.50591000
12.73776596,-69.50591000
12.74032596,-73.99212000
12.74288596,-69.50591000
12.74544596,-73.99212000
12.74800596,-73.99212000
12.75056596,-69.50591000
12.75312596,-69.50591000
12.75568596,-73.99212000
12.75824596,-69.50591000
12.76080596,-73.99212000
12.76336596,-69.50591000
12.76592596,-69.50591000
12.76848596,-69.50591000
12.77104596,-69.50591000
12.77360596,-69.50591000
12.77616596,-69.50591000
12.77872596,-69.50591000
12.78128596,-69.50591000
12.78384596,-69.50591000
12.78640596,-69.50591000
12.78896596,-69.50591000
12.79152596,-69.50591000
12.79408596,-69.50591000
12.79664596,-69.50591000
12.79920596,-69.50591000
12.80176596,-69.50591000
12.80432596,-73.99212000
12.80688596,-73.99212000
12.80944596,-69.50591000
12.81200596,-69.50591000
12.81456596,-69.50591000
12.81712596,-69.50591000
12.81968596,-73.99212000
12.82224596,-69.50591000
12.82480596,-73.99212000
12.82736596,-69.50591000
12.82992596,-73.99212000
12.83248596,-69.50591000
12.83504596,-73.99212000
12.83760596,-73.99212000
12.84016596,-69.50591000
12.84272596,-73.99212000
12.84528596,-73.99212000
12.84784596,-73.99212000
12.85040596,-69.50591000
12.85296596,-73.99212000
12.85552596,-73.99212000
12.85808596,-73.99212000
12.86064596,-73.99212000
12.86320596,-73.99212000
12.86576596,-73.99212000
12.86832596,-73.99212000
12.87088596,-78.46308000
12.87344596,-73.99212000
12.87600596,-73.99212000
12.87856596,-73.99212000
12.88112596,-73.99212000
12.88368596,-78.46308000
12.88624596,-73.99212000
12.88880596,-73.99212000
12.89136596,-78.46308000
12.89392596,-78.46308000
12.89648596,-78.46308000
12.89904596,-78.46308000
12.90160596,-78.46308000
12.90416596,-78.46308000
12.90672596,-73.99212000
12.90928596,-78.46308000
12.91184596,-78.46308000
12.91440596,-78.46308000
12.91696596,-78.46308000
12.91952596,-78.46308000
12.92208596,-78.46308000
12.92464596,-78.46308000
12.92720596,-78.46308000
12.92976596,-78.46308000
12.93232596,-78.46308000
12.93488596,-78.46308000
12.93744596,-78.46308000
12.94000596,-78.46308000
12.94256596,-78.46308000
12.94512596,-78.46308000
12.94768596,-78.46308000
12.95024596,-78.46308000
12.95280596,-78.46308000
12.95536596,-78.46308000
12.95792596,-78.46308000
12.96048596,-78.46308000
12.96304596,-78.46308000
12.96560596,-78.46308000
12.96816596,-78.46308000
12.97072596,-78.46308000
12.97328596,-78.46308000
12.97584596,-78.46308000
12.97840596,-78.46308000
12.98096596,-78.46308000
12.98352596,-78.46308000
12.98608596,-78.46308000
12.98864596,-78.46308000
12.99120596,-78.46308000
12.99376596,-78.46308000
12.99632596,-78.46308000
12.99888596,-78.46308000
13.00144596,-78.46308000
13.00400596,-78.46308000
13.00656596,-78.46308000
13.00912596,-78.46308000
13.01168596,-78.46308000
13.01424596,-78.46308000
13.01680596,-78.46308000
13.01936596,-78.46308000
13.02192596,-78.46308000
13.02448596,-73.99212000
13.02704596,-73.99212000
13.02960596,-73.99212000
13.03216596,-78.46308000
13.03472596,-73.99212000
13.03728596,-73.99212000
13.03984596,-73.99212000
13.04240596,-73.99212000
13.04496596,-78.46308000
13.04752596,-73.99212000
13.05008596,-73.99212000
13.05264596,-73.99212000
13.05520596,-73.99212000
13.05776596,-78.46308000
13.06032596,-73.99212000
13.06288596,-73.99212000
13.06544596,-73.99212000
13.06800596,-73.99212000
13.07056596,-73.99212000
13.07312596,-73.99212000
13.07568596,-73.99212000
13.07824596,-73.99212000
13.08080596,-73.99212000
13.08336596,-69.50591000
13.08592596,-73.99212000
13.08848596,-69.50591000
13.09104596,-73.99212000
13.09360596,-69.50591000
13.09616596,-73.99212000
13.09872596,-69.50591000
13.10128596,-73.99212000
13.10384596,-73.99212000
13.10640596,-73.99212000
13.10896596,-73.99212000
13.11152596,-73.99212000
13.11408596,-73.99212000
13.11664596,-73.99212000
13.11920596,-69.50591000
13.12176596,-73.99212000
13.12432596,-73.99212000
13.12688596,-73.99212000
13.12944596,-73.99212000
13.13200596,-73.99212000
13.13456596,-69.50591000
13.13712596,-69.50591000
13.13968596,-69.50591000
13.14224596,-73.99212000
13.14480596,-73.99212000
13.14736596,-69.50591000
13.14992596,-73.99212000
13.15248596,-69.50591000
13.15504596,-69.50591000
13.15760596,-69.50591000
13.16016596,-69.50591000
13.16272596,-73.99212000
13.16528596,-73.99212000
13.16784596,-73.99212000
13.17040596,-73.99212000
13.17296596,-69.50591000
13.17552596,-73.99212000
13.17808596,-73.99212000
13.18064596,-69.50591000
13.18320596,-73.99212000
13.18576596,-73.99212000
13.18832596,-73.99212000
13.19088596,-73.99212000
13.19344596,-73.99212000
13.19600596,-69.50591000
13.19856596,-73.99212000
13.20112596,-73.99212000
13.20368596,-73.99212000
13.20624596,-73.99212000
13.20880596,-73.99212000
13.21136596,-73.99212000
13.21392596,-73.99212000
13.21648596,-73.99212000
13.21904596,-73.99212000
13.22160596,-69.50591000
13.22416596,-73.99212000
13.22672596,-69.50591000
13.22928596,-73.99212000
13.23184596,-69.50591000
13.23440596,-69.50591000
13.23696596,-73.99212000
13.23952596,-73.99212000
13.24208596,-73.99212000
13.24464596,-69.50591000
13.24720596,-73.99212000
13.24976596,-73.99212000
13.25232596,-73.99212000
13.25488596,-73.99212000
13.25744596,-73.99212000
13.26000596,-73.99212000
13.26256596,-73.99212000
13.26512596,-73.99212000
13.26768596,-73.99212000
13.27024596,-73.99212000
13.27280596,-73.99212000
13.27536596,-73.99212000
13.27792596,-73.99212000
13.28048596,-73.99212000
13.28304596,-73.99212000
13.28560596,-69.50591000
13.28816596,-73.99212000
13.29072596,-78.46308000
13.29328596,-73.99212000
13.29584596,-73.99212000
13.29840596,-73.99212000
13.30096596,-73.99212000
13.30352596,-73.99212000
13.30608596,-69.50591000
13.30864596,-73.99212000
13.31120596,-73.99212000
13.31376596,-73.99212000
13.31632596,-73.99212000
13.31888596,-73.99212000
13.32144596,-69.50591000
13.32400596,-73.99212000
13.32656596,-73.99212000
13.32912596,-73.99212000
13.33168596,-73.99212000
13.33424596,-73.99212000
13.33680596,-73.99212000
13.33936596,-73.99212000
13.34192596,-73.99212000
13.34448596,-73.99212000
13.34704596,-73.99212000
13.34960596,-73.99212000
13.35216596,-73.99212000
13.35472596,-73.99212000
13.35728596,-73.99212000
13.35984596,-73.99212000
13.36240596,-78.46308000
13.36496596,-73.99212000
13.36752596,-73.99212000
13.37008596,-78.46308000
13.37264596,-73.99212000
13.37520596,-73.99212000
13.37776596,-73.99212000
13.38032596,-69.50591000
13.38288596,-73.99212000
13.38544596,-78.46308000
13.38800596,-73.99212000
13.39056596,-73.99212000
13.39312596,-73.99212000
13.39568596,-78.46308000
13.39824596,-73.99212000
13.40080596,-73.99212000
13.40336596,-78.46308000
13.40592596,-78.46308000
13.40848596,-73.99212000
13.41104596,-73.99212000
13.41360596,-73.99212000
13.41616596,-78.46308000
13.41872596,-73.99212000
13.42128596,-78.46308000
13.42384596,-78.46308000
13.42640596,-78.46308000
13.42896596,-78.46308000
13.43152596,-78.46308000
13.43408596,-73.99212000
13.43664596,-73.99212000
13.43920596,-73.99212000
13.44176596,-78.46308000
13.44432596,-73.99212000
13.44688596,-73.99212000
13.44944596,-78.46308000
13.45200596,-73.99212000
13.45456596,-73.99212000
13.45712596,-73.99212000
13.45968596,-73.99212000
13.46224596,-73.99212000
13.46480596,-73.99212000
13.46736596,-73.99212000
13.46992596,-73.99212000
13.47248596,-73.99212000
13.47504596,-73.99212000
13.47760596,-78.46308000
13.48016596,-78.46308000
13.48272596,-78.46308000
13.48528596,-73.99212000
13.48784596,-78.46308000
13.49040596,-78.46308000
13.49296596,-73.99212000
13.49552596,-78.46308000
13.49808596,-73.99212000
13.50064596,-73.99212000
13.50320596,-73.99212000
13.50576596,-73.99212000
13.50832596,-78.46308000
13.51088596,-73.99212000
13.51344596,-73.99212000
13.51600596,-69.50591000
13.51856596,-73.99212000
13.52112596,-73.99212000
13.52368596,-73.99212000
13.52624596,-73.99212000
13.52880596,-73.99212000
13.53136596,-78.46308000
13.53392596,-73.99212000
13.53648596,-73.99212000
13.53904596,-73.99212000
13.54160596,-73.99212000
13.54416596,-73.99212000
13.54672596,-73.99212000
13.54928596,-73.99212000
13.55184596,-73.99212000
13.55440596,-73.99212000
13.55696596,-73.99212000
13.55952596,-73.99212000
13.56208596,-78.46308000
13.56464596,-73.99212000
13.56720596,-73.99212000
13.56976596,-73.99212000
13.57232596,-78.46308000
13.57488596,-73.99212000
13.57744596,-73.99212000
13.58000596,-73.99212000
13.58256596,-73.99212000
13.58512596,-73.99212000
13.58768596,-73.99212000
13.59024596,-73.99212000
13.59280596,-73.99212000
13.59536596,-69.50591000
13.59792596,-69.50591000
13.60048596,-73.99212000
13.60304596,-73.99212000
13.60560596,-73.99212000
13.60816596,-73.99212000
13.61072596,-73.99212000
13.61328596,-73.99212000
13.61584596,-73.99212000
13.61840596,-73.99212000
13.62096596,-73.99212000
13.62352596,-73.99212000
13.62608596,-73.99212000
13.62864596,-73.99212000
13.63120596,-73.99212000
13.63376596,-73.99212000
13.63632596,-69.50591000
13.63888596,-73.99212000
13.64144596,-73.99212000
13.64400596,-73.99212000
13.64656596,-73.99212000
13.64912596,-73.99212000
13.65168596,-73.99212000
13.65424596,-73.99212000
13.65680596,-73.99212000
13.65936596,-73.99212000
13.66192596,-73.99212000
13.66448596,-73.99212000
13.66704596,-73.99212000
13.66960596,-73.99212000
13.67216596,-73.99212000
13.67472596,-73.99212000
13.67728596,-69.50591000
13.67984596,-69.50591000
13.68240596,-73.99212000
13.68496596,-73.99212000
13.68752596,-73.99212000
13.69008596,-73.99212000
13.69264596,-73.99212000
13.69520596,-73.99212000
13.69776596,-73.99212000
13.70032596,-73.99212000
13.70288596,-73.99212000
13.70544596,-73.99212000
13.70800596,-73.99212000
13.71056596,-73.99212000
13.71312596,-73.99212000
13.71568596,-69.50591000
13.71824596,-69.50591000
13.72080596,-73.99212000
13.72336596,-73.99212000
13.72592596,-73.99212000
13.72848596,-73.99212000
13.73104596,-73.99212000
13.73360596,-69.50591000
13.73616596,-73.99212000
13.73872596,-69.50591000
13.74128596,-73.99212000
13.74384596,-73.99212000
13.74640596,-73.99212000
13.74896596,-73.99212000
13.75152596,-69.50591000
13.75408596,-69.50591000
13.75664596,-69.50591000
13.75920596,-73.99212000
13.76176596,-73.99212000
13.76432596,-73.99212000
13.76688596,-73.99212000
13.76944596,-69.50591000
13.77200596,-73.99212000
13.77456596,-69.50591000
13.77712596,-73.99212000
13.77968596,-73.99212000
13.78224596,-69.50591000
13.78480596,-69.50591000
13.78736596,-73.99212000
13.78992596,-69.50591000
13.79248596,-73.99212000
13.79504596,-69.50591000
13.79760596,-73.99212000
13.80016596,-73.99212000
13.80272596,-73.99212000
13.80528596,-73.99212000
13.80784596,-69.50591000
13.81040596,-69.50591000
13.81296596,-69.50591000
13.81552596,-69.50591000
13.81808596,-69.50591000
13.82064596,-73.99212000
13.82320596,-69.50591000
13.82576596,-73.99212000
13.82832596,-73.99212000
13.83088596,-73.99212000
13.83344596,-73.99212000
13.83600596,-69.50591000
13.83856596,-69.50591000
13.84112596,-69.50591000
13.84368596,-69.50591000
13.84624596,-73.99212000
13.84880596,-73.99212000
13.85136596,-69.50591000
13.85392596,-73.99212000
13.85648596,-73.99212000
13.85904596,-73.99212000
13.86160596,-73.99212000
13.86416596,-69.50591000
13.86672596,-73.99212000
13.86928596,-73.99212000
13.87184596,-69.50591000
13.87440595,-73.99212000
13.87696595,-69.50591000
13.87952595,-73.99212000
13.88208595,-69.50591000
13.88464595,-69.50591000
13.88720595,-69.50591000
13.88976595,-69.50591000
13.89232595,-69.50591000
13.89488595,-73.99212000
13.89744595,-73.99212000
13.90000595,-69.50591000
13.90256595,-69.50591000
13.90512595,-69.50591000
13.90768595,-73.99212000
13.91024595,-73.99212000
13.91280595,-69.50591000
13.91536595,-69.50591000
13.91792595,-73.99212000
13.92048595,-73.99212000
13.92304595,-73.99212000
13.92560595,-73.99212000
13.92816595,-73.99212000
13.93072595,-73.99212000
13.93328595,-73.99212000
13.93584595,-69.50591000
13.93840595,-73.99212000
13.94096595,-73.99212000
13.94352595,-73.99212000
13.94608595,-69.50591000
13.94864595,-69.50591000
13.95120595,-73.99212000
13.95376595,-73.99212000
13.95632595,-73.99212000
13.95888595,-73.99212000
13.96144595,-73.99212000
13.96400595,-73.99212000
13.96656595,-69.50591000
13.96912595,-69.50591000
13.97168595,-69.50591000
13.97424595,-73.99212000
13.97680595,-73.99212000
13.97936595,-73.99212000
13.98192595,-73.99212000
13.98448595,-73.99212000
13.98704595,-73.99212000
13.98960595,-73.99212000
13.99216595,-69.50591000
13.99472595,-73.99212000
13.99728595,-73.99212000
13.99984595,-73.99212000
14.00240595,-73.99212000
14.00496595,-73.99212000
14.00752595,-73.99212000
14.01008595,-73.99212000
14.01264595,-73.99212000
14.01520595,-73.99212000
14.01776595,-73.99212000
14.02032595,-73.99212000
14.02288595,-73.99212000
14.02544595,-73.99212000
14.02800595,-78.46308000
14.03056595,-73.99212000
14.03312595,-73.99212000
14.03568595,-69.50591000
14.03824595,-78.46308000
14.04080595,-73.99212000
14.04336595,-73.99212000
14.04592595,-73.99212000
14.04848595,-73.99212000
14.05104595,-73.99212000
14.05360595,-73.99212000
14.05616595,-78.46308000
14.05872595,-73.99212000
14.06128595,-78.46308000
14.06384595,-73.99212000
14.06640595,-78.46308000
14.06896595,-78.46308000
14.07152595,-73.99212000
14.07408595,-73.99212000
14.07664595,-73.99212000
14.07920595,-73.99212000
14.08176595,-73.99212000
14.08432595,-73.99212000
14.08688595,-78.46308000
14.08944595,-78.46308000
14.09200595,-73.99212000
14.09456595,-73.99212000
14.09712595,-73.99212000
14.09968595,-73.99212000
14.10224595,-73.99212000
14.10480595,-73.99212000
14.10736595,-78.46308000
14.10992595,-73.99212000
14.11248595,-78.46308000
14.11504595,-73.99212000
14.11760595,-73.99212000
14.12016595,-73.99212000
14.12272595,-78.46308000
14.12528595,-78.46308000
14.12784595,-73.99212000
14.13040595,-78.46308000
14.13296595,-78.46308000
14.13552595,-78.46308000
14.13808595,-73.99212000
14.14064595,-73.99212000
14.14320595,-73.99212000
14.14576595,-73.99212000
14.14832595,-73.99212000
14.15088595,-73.99212000
14.15344595,-73.99212000
14.15600595,-73.99212000
14.15856595,-73.99212000
14.16112595,-73.99212000
14.16368595,-73.99212000
14.16624595,-73.99212000
14.16880595,-73.99212000
14.17136595,-73.99212000
14.17392595,-73.99212000
14.17648595,-73.99212000
14.17904595,-73.99212000
14.18160595,-73.99212000
14.18416595,-73.99212000
14.18672595,-73.99212000
14.18928595,-73.99212000
14.19184595,-73.99212000
14.19440595,-73.99212000
14.19696595,-73.99212000
14.19952595,-73.99212000
14.20208595,-73.99212000
14.20464595,-73.99212000
14.20720595,-73.99212000
14.20976595,-73.99212000
14.21232595,-73.99212000
14.21488595,-73.99212000
14.21744595,-69.50591000
14.22000595,-69.50591000
14.22256595,-73.99212000
14.22512595,-73.99212000
14.22768595,-73.99212000
14.23024595,-73.99212000
14.23280595,-73.99212000
14.23536595,-73.99212000
14.23792595,-73.99212000
14.24048595,-73.99212000
14.24304595,-73.99212000
14.24560595,-73.99212000
14.24816595,-69.50591000
14.25072595,-69.50591000
14.25328595,-73.99212000
14.25584595,-73.99212000
14.25840595,-69.50591000
14.26096595,-73.99212000
14.26352595,-73.99212000
14.26608595,-69.50591000
14.26864595,-69.50591000
14.27120595,-73.99212000
14.27376595,-69.50591000
14.27632595,-73.99212000
14.27888595,-69.50591000
14.28144595,-69.50591000
14.28400595,-69.50591000
14.28656595,-73.99212000
14.28912595,-73.99212000
14.29168595,-69.50591000
14.29424595,-69.50591000
14.29680595,-69.50591000
14.29936595,-69.50591000
14.30192595,-69.50591000
14.30448595,-73.99212000
14.30704595,-69.50591000
14.30960595,-73.99212000
14.31216595,-73.99212000
14.31472595,-73.99212000
14.31728595,-73.99212000
14.31984595,-73.99212000
14.32240595,-69.50591000
14.32496595,-73.99212000
14.32752595,-69.50591000
14.33008595,-69.50591000
14.33264595,-73.99212000
14.33520595,-73.99212000
14.33776595,-69.50591000
14.34032595,-69.50591000
14.34288595,-69.50591000
14.34544595,-73.99212000
14.34800595,-69.50591000
14.35056595,-69.50591000
14.35312595,-69.50591000
14.35568595,-69.50591000
14.35824595,-69.50591000
14.36080595,-69.50591000
14.36336595,-73.99212000
14.36592595,-73.99212000
14.36848595,-69.50591000
14.37104595,-69.50591000
14.37360595,-69.50591000
14.37616595,-69.50591000
14.37872595,-69.50591000
14.38128595,-69.50591000
14.38384595,-73.99212000
14.38640595,-73.99212000
14.38896595,-69.50591000
14.39152595,-69.50591000
14.39408595,-69.50591000
14.39664595,-73.99212000
14.39920595,-69.50591000
14.40176595,-73.99212000
14.40432595,-69.50591000
14.40688595,-73.99212000
14.40944595,-69.50591000
14.41200595,-69.50591000
14.41456595,-69.50591000
14.41712595,-69.50591000
14.41968595,-69.50591000
14.42224595,-69.50591000
14.42480595,-69.50591000
14.42736595,-69.50591000
14.42992595,-69.50591000
14.43248595,-69.50591000
14.43504595,-73.99212000
14.43760595,-69.50591000
14.44016595,-69.50591000
14.44272595,-69.50591000
14.44528595,-69.50591000
14.44784595,-69.50591000
14.45040595,-69.50591000
14.45296595,-69.50591000
14.45552595,-69.50591000
14.45808595,-73.99212000
14.46064595,-69.50591000
14.46320595,-69.50591000
14.46576595,-69.50591000
14.46832595,-73.99212000
14.47088595,-69.50591000
14.47344595,-69.50591000
14.47600595,-69.50591000
14.47856595,-69.50591000
14.48112595,-73.99212000
14.48368595,-69.50591000
14.48624595,-69.50591000
14.48880595,-73.99212000
14.49136595,-69.50591000
14.49392595,-69.50591000
14.49648595,-69.50591000
14.49904595,-69.50591000
14.50160595,-73.99212000
14.50416595,-69.50591000
14.50672595,-69.50591000
14.50928595,-69.50591000
14.51184595,-69.50591000
14.51440595,-69.50591000
14.51696595,-69.50591000
14.51952595,-69.50591000
14.52208595,-73.99212000
14.52464595,-69.50591000
14.52720595,-69.50591000
14.52976595,-69.50591000
14.53232595,-69.50591000
14.53488595,-69.50591000
14.53744595,-69.50591000
14.54000595,-69.50591000
14.54256595,-69.50591000
14.54512595,-69.50591000
14.54768595,-69.50591000
14.55024595,-73.99212000
14.55280595,-69.50591000
14.55536595,-69.50591000
14.55792595,-69.50591000
14.56048595,-69.50591000
14.56304595,-69.50591000
14.56560595,-69.50591000
14.56816595,-69.50591000
14.57072595,-69.50591000
14.57328595,-69.50591000
14.57584595,-69.50591000
14.57840595,-69.50591000
14.58096595,-69.50591000
14.58352595,-69.50591000
14.58608595,-69.50591000
14.58864595,-69.50591000
14.59120595,-69.50591000
14.59376595,-69.50591000
14.59632595,-69.50591000
14.59888595,-73.99212000
14.60144595,-69.50591000
14.60400595,-69.50591000
14.60656595,-69.50591000
14.60912595,-69.50591000
14.61168595,-69.50591000
14.61424595,-69.50591000
14.61680595,-69.50591000
14.61936595,-73.99212000
14.62192595,-73.99212000
14.62448595,-69.50591000
14.62704595,-69.50591000
14.62960595,-69.50591000
14.63216595,-69.50591000
14.63472595,-69.50591000
14.63728595,-69.50591000
14.63984595,-69.50591000
14.64240595,-69.50591000
14.64496595,-69.50591000
14.64752595,-69.50591000
14.65008595,-69.50591000
14.65264595,-69.50591000
14.65520595,-73.99212000
14.65776595,-69.50591000
14.66032595,-69.50591000
14.66288595,-69.50591000
14.66544595,-69.50591000
14.66800595,-69.50591000
14.67056595,-69.50591000
14.67312595,-69.50591000
14.67568595,-69.50591000
14.67824595,-69.50591000
14.68080595,-69.50591000
14.68336595,-69.50591000
14.68592595,-69.50591000
14.68848595,-69.50591000
14.69104595,-69.50591000
14.69360595,-69.50591000
14.69616595,-69.50591000
14.69872595,-69.50591000
14.70128595,-69.50591000
14.70384595,-69.50591000
14.70640595,-69.50591000
14.70896595,-69.50591000
14.71152595,-69.50591000
14.71408595,-69.50591000
14.71664595,-69.50591000
14.71920595,-69.50591000
14.72176595,-69.50591000
14.72432595,-69.50591000
14.72688595,-69.50591000
14.72944595,-69.50591000
14.73200595,-69.50591000
14.73456595,-69.50591000
14.73712595,-69.50591000
14.73968595,-69.50591000
14.74224595,-69.50591000
14.74480595,-69.50591000
14.74736595,-69.50591000
14.74992595,-69.50591000
14.75248595,-69.50591000
14.75504595,-69.50591000
14.75760595,-69.50591000
14.76016595,-69.50591000
14.76272595,-69.50591000
14.76528595,-69.50591000
14.76784595,-69.50591000
14.77040595,-69.50591000
14.77296595,-69.50591000
14.77552595,-69.50591000
14.77808595,-69.50591000
14.78064595,-69.50591000
14.78320595,-69.50591000
14.78576595,-69.50591000
14.78832595,-73.99212000
14.79088595,-69.50591000
14.79344595,-69.50591000
14.79600595,-69.50591000
14.79856595,-69.50591000
14.80112595,-69.50591000
14.80368595,-69.50591000
14.80624595,-69.50591000
14.80880595,-73.99212000
14.81136595,-73.99212000
14.81392595,-69.50591000
14.81648595,-69.50591000
14.81904595,-73.99212000
14.82160595,-69.50591000
14.82416595,-69.50591000
14.82672595,-69.50591000
14.82928595,-69.50591000
14.83184595,-73.99212000
14.83440595,-69.50591000
14.83696595,-73.99212000
14.83952595,-73.99212000
14.84208595,-73.99212000
14.84464595,-69.50591000
14.84720595,-73.99212000
14.84976595,-73.99212000
14.85232595,-69.50591000
14.85488595,-69.50591000
14.85744595,-73.99212000
14.86000595,-73.99212000
14.86256595,-69.50591000
14.86512595,-73.99212000
14.86768595,-69.50591000
14.87024595,-69.50591000
14.87280595,-69.50591000
14.87536595,-73.99212000
14.87792595,-73.99212000
14.88048595,-73.99212000
14.88304595,-73.99212000
14.88560595,-69.50591000
14.88816595,-73.99212000
14.89072595,-69.50591000
14.89328595,-69.50591000
14.89584595,-73.99212000
14.89840595,-69.50591000
14.90096595,-73.99212000
14.90352595,-73.99212000
14.90608595,-73.99212000
14.90864595,-73.99212000
14.91120595,-73.99212000
14.91376595,-69.50591000
14.91632595,-69.50591000
14.91888595,-73.99212000
14.92144595,-73.99212000
14.92400595,-73.99212000
14.92656595,-69.50591000
14.92912595,-73.99212000
14.93168595,-73.99212000
14.93424595,-73.99212000
14.93680595,-69.50591000
14.93936595,-73.99212000
14.94192595,-73.99212000
14.94448595,-73.99212000
14.94704595,-69.50591000
14.94960595,-69.50591000
14.95216595,-73.99212000
14.95472595,-73.99212000
14.95728595,-69.50591000
14.95984595,-73.99212000
14.96240595,-73.99212000
14.96496595,-73.99212000
14.96752595,-69.50591000
14.97008595,-73.99212000
14.97264595,-69.50591000
14.97520595,-73.99212000
14.97776595,-73.99212000
14.98032595,-73.99212000
14.98288595,-69.50591000
14.98544595,-69.50591000
14.98800595,-73.99212000
14.99056595,-73.99212000
14.99312595,-73.99212000
14.99568595,-73.99212000
14.99824595,-73.99212000
15.00080595,-73.99212000
15.00336595,-73.99212000
15.00592595,-78.46308000
15.00848595,-73.99212000
15.01104595,-73.99212000
15.01360595,-73.99212000
15.01616595,-73.99212000
15.01872595,-73.99212000
15.02128595,-73.99212000
15.02384595,-69.50591000
15.02640595,-69.50591000
15.02896595,-73.99212000
15.03152595,-73.99212000
15.03408595,-73.99212000
15.03664595,-69.50591000
15.03920595,-73.99212000
15.04176595,-69.50591000
15.04432595,-73.99212000
15.04688595,-73.99212000
15.04944595,-69.50591000
15.05200595,-73.99212000
15.05456595,-69.50591000
15.05712595,-73.99212000
15.05968595,-73.99212000
15.06224595,-69.50591000
15.06480595,-73.99212000
15.06736595,-69.50591000
15.06992595,-73.99212000
15.07248595,-73.99212000
15.07504595,-73.99212000
15.07760595,-73.99212000
15.08016595,-73.99212000
15.08272595,-69.50591000
15.08528595,-69.50591000
15.08784595,-69.50591000
15.09040595,-73.99212000
15.09296595,-69.50591000
15.09552595,-69.50591000
15.09808595,-73.99212000
15.10064595,-73.99212000
15.10320595,-73.99212000
15.10576595,-73.99212000
15.10832595,-69.50591000
15.11088595,-73.99212000
15.11344595,-69.50591000
15.11600595,-73.99212000
15.11856595,-73.99212000
15.12112595,-69.50591000
15.12368595,-69.50591000
15.12624595,-73.99212000
15.12880595,-69.50591000
15.13136595,-69.50591000
15.13392595,-69.50591000
15.13648595,-69.50591000
15.13904595,-69.50591000
15.14160595,-69.50591000
15.14416595,-69.50591000
15.14672595,-69.50591000
15.14928595,-73.99212000
15.15184595,-69.50591000
15.15440595,-73.99212000
15.15696595,-73.99212000
15.15952595,-73.99212000
15.16208595,-73.99212000
15.16464595,-69.50591000
15.16720595,-73.99212000
15.16976595,-73.99212000
15.17232595,-73.99212000
15.17488595,-69.50591000
15.17744595,-69.50591000
15.18000595,-69.50591000
15.18256595,-73.99212000
15.18512595,-69.50591000
15.18768595,-69.50591000
15.19024595,-69.50591000
15.19280595,-73.99212000
15.19536595,-73.99212000
15.19792595,-73.99212000
15.20048595,-69.50591000
15.20304595,-73.99212000
15.20560595,-73.99212000
15.20816595,-73.99212000
15.21072595,-73.99212000
15.21328595,-69.50591000
15.21584595,-69.50591000
15.21840595,-69.50591000
15.22096595,-73.99212000
15.22352595,-73.99212000
15.22608595,-73.99212000
15.22864595,-73.99212000
15.23120595,-69.50591000
15.23376595,-73.99212000
15.23632595,-73.99212000
15.23888595,-73.99212000
15.24144595,-73.99212000
15.24400595,-73.99212000
15.24656595,-69.50591000
15.24912595,-73.99212000
15.25168595,-73.99212000
15.25424595,-73.99212000
15.25680595,-73.99212000
15.25936595,-73.99212000
15.26192595,-73.99212000
15.26448595,-73.99212000
15.26704595,-73.99212000
15.26960595,-73.99212000
15.27216595,-73.99212000
15.27472595,-73.99212000
15.27728595,-73.99212000
15.27984595,-73.99212000
15.28240595,-73.99212000
15.28496595,-73.99212000
15.28752595,-73.99212000
15.29008595,-73.99212000
15.29264595,-73.99212000
15.29520595,-73.99212000
15.29776595,-73.99212000
15.30032595,-78.46308000
15.30288595,-73.99212000
15.30544595,-73.99212000
15.30800595,-73.99212000
15.31056595,-73.99212000
15.31312595,-73.99212000
15.31568595,-73.99212000
15.31824595,-73.99212000
15.32080595,-69.50591000
15.32336595,-73.99212000
15.32592595,-73.99212000
15.32848595,-69.50591000
15.33104595,-73.99212000
15.33360595,-73.99212000
15.33616595,-73.99212000
15.33872595,-69.50591000
15.34128595,-73.99212000
15.34384595,-73.99212000
15.34640595,-69.50591000
15.34896595,-73.99212000
15.35152595,-73.99212000
15.35408595,-73.99212000
15.35664595,-73.99212000
15.35920595,-73.99212000
15.36176595,-73.99212000
15.36432595,-69.50591000
15.36688595,-69.50591000
15.36944595,-73.99212000
15.37200595,-73.99212000
15.37456595,-73.99212000
15.37712595,-73.99212000
15.37968595,-73.99212000
15.38224595,-73.99212000
15.38480595,-73.99212000
15.38736595,-69.50591000
15.38992595,-73.99212000
15.39248595,-73.99212000
15.39504595,-69.50591000
15.39760595,-73.99212000
15.40016595,-69.50591000
15.40272595,-73.99212000
15.40528595,-73.99212000
15.40784595,-73.99212000
15.41040595,-73.99212000
15.41296595,-73.99212000
15.41552595,-73.99212000
15.41808595,-73.99212000
15.42064595,-73.99212000
15.42320595,-69.50591000
15.42576595,-73.99212000
15.42832595,-73.99212000
15.43088595,-73.99212000
15.43344595,-73.99212000
15.43600595,-73.99212000
15.43856595,-78.46308000
15.44112595,-73.99212000
15.44368595,-73.99212000
15.44624595,-73.99212000
15.44880595,-73.99212000
15.45136595,-73.99212000
15.45392595,-73.99212000
15.45648595,-69.50591000
15.45904595,-73.99212000
15.46160595,-73.99212000
15.46416595,-73.99212000
15.46672595,-73.99212000
15.46928595,-73.99212000
15.47184595,-78.46308000
15.47440595,-78.46308000
15.47696595,-73.99212000
15.47952595,-73.99212000
15.48208595,-73.99212000
15.48464595,-73.99212000
15.48720595,-73.99212000
15.48976595,-73.99212000
15.49232595,-73.99212000
15.49488595,-73.99212000
15.49744595,-73.99212000
15.50000595,-73.99212000
15.50256595,-73.99212000
15.50512595,-73.99212000
15.50768595,-73.99212000
15.51024595,-73.99212000
15.51280595,-73.99212000
15.51536595,-73.99212000
15.51792595,-73.99212000
15.52048594,-73.99212000
15.52304594,-73.99212000
15.52560594,-73.99212000
15.52816594,-69.50591000
15.53072594,-73.99212000
15.53328594,-73.99212000
15.53584594,-73.99212000
15.53840594,-73.99212000
15.54096594,-73.99212000
15.54352594,-73.99212000
15.54608594,-73.99212000
15.54864594,-73.99212000
15.55120594,-73.99212000
15.55376594,-73.99212000
15.55632594,-73.99212000
15.55888594,-73.99212000
15.56144594,-69.50591000
15.56400594,-73.99212000
15.56656594,-73.99212000
15.56912594,-69.50591000
15.57168594,-73.99212000
15.57424594,-73.99212000
15.57680594,-73.99212000
15.57936594,-73.99212000
15.58192594,-73.99212000
15.58448594,-73.99212000
15.58704594,-73.99212000
15.58960594,-73.99212000
15.59216594,-73.99212000
15.59472594,-73.99212000
15.59728594,-69.50591000
15.59984594,-73.99212000
15.60240594,-73.99212000
15.60496594,-69.50591000
15.60752594,-73.99212000
15.61008594,-69.50591000
15.61264594,-69.50591000
15.61520594,-73.99212000
15.61776594,-73.99212000
15.62032594,-73.99212000
15.62288594,-69.50591000
15.62544594,-78.46308000
15.62800594,-69.50591000
15.63056594,-73.99212000
15.63312594,-73.99212000
15.63568594,-78.46308000
15.63824594,-73.99212000
15.64080594,-73.99212000
15.64336594,-69.50591000
15.64592594,-69.50591000
15.64848594,-69.50591000
15.65104594,-69.50591000
15.65360594,-73.99212000
15.65616594,-73.99212000
15.65872594,-69.50591000
15.66128594,-73.99212000
15.66384594,-73.99212000
15.66640594,-73.99212000
15.66896594,-73.99212000
15.67152594,-73.99212000
15.67408594,-69.50591000
15.67664594,-73.99212000
15.67920594,-73.99212000
15.68176594,-73.99212000
15.68432594,-69.50591000
15.68688594,-73.99212000
15.68944594,-73.99212000
15.69200594,-73.99212000
15.69456594,-73.99212000
15.69712594,-73.99212000
15.69968594,-73.99212000
15.70224594,-73.99212000
15.70480594,-69.50591000
15.70736594,-73.99212000
15.70992594,-73.99212000
15.71248594,-69.50591000
15.71504594,-73.99212000
15.71760594,-73.99212000
15.72016594,-69.50591000
15.72272594,-69.50591000
15.72528594,-73.99212000
15.72784594,-73.99212000
15.73040594,-73.99212000
15.73296594,-73.99212000
15.73552594,-73.99212000
15.73808594,-69.50591000
15.74064594,-73.99212000
15.74320594,-73.99212000
15.74576594,-69.50591000
15.74832594,-73.99212000
15.75088594,-73.99212000
15.75344594,-73.99212000
15.75600594,-73.99212000
15.75856594,-73.99212000
15.76112594,-73.99212000
15.76368594,-73.99212000
15.76624594,-73.99212000
15.76880594,-73.99212000
15.77136594,-69.50591000
15.77392594,-73.99212000
15.77648594,-73.99212000
15.77904594,-73.99212000
15.78160594,-73.99212000
15.78416594,-73.99212000
15.78672594,-73.99212000
15.78928594,-73.99212000
15.79184594,-73.99212000
15.79440594,-73.99212000
15.79696594,-73.99212000
15.79952594,-73.99212000
15.80208594,-73.99212000
15.80464594,-73.99212000
15.80720594,-73.99212000
15.80976594,-69.50591000
15.81232594,-73.99212000
15.81488594,-73.99212000
15.81744594,-73.99212000
15.82000594,-73.99212000
15.82256594,-73.99212000
15.82512594,-78.46308000
15.82768594,-73.99212000
15.83024594,-73.99212000
15.83280594,-69.50591000
15.83536594,-73.99212000
15.83792594,-73.99212000
15.84048594,-73.99212000
15.84304594,-73.99212000
15.84560594,-73.99212000
15.84816594,-73.99212000
15.85072594,-73.99212000
15.85328594,-73.99212000
15.85584594,-73.99212000
15.85840594,-73.99212000
15.86096594,-73.99212000
15.86352594,-73.99212000
15.86608594,-73.99212000
15.86864594,-73.99212000
15.87120594,-73.99212000
15.87376594,-73.99212000
15.87632594,-73.99212000
15.87888594,-73.99212000
15.88144594,-73.99212000
15.88400594,-73.99212000
15.88656594,-69.50591000
15.88912594,-73.99212000
15.89168594,-73.99212000
15.89424594,-73.99212000
15.89680594,-73.99212000
15.89936594,-73.99212000
15.90192594,-73.99212000
15.90448594,-73.99212000
15.90704594,-73.99212000
15.90960594,-73.99212000
15.91216594,-73.99212000
15.91472594,-73.99212000
15.91728594,-73.99212000
15.91984594,-73.99212000
15.92240594,-73.99212000
15.92496594,-73.99212000
15.92752594,-69.50591000
15.93008594,-73.99212000
15.93264594,-73.99212000
15.93520594,-73.99212000
15.93776594,-73.99212000
15.94032594,-73.99212000
15.94288594,-73.99212000
15.94544594,-73.99212000
15.94800594,-73.99212000
15.95056594,-73.99212000
15.95312594,-73.99212000
15.95568594,-69.50591000
15.95824594,-73.99212000
15.96080594,-73.99212000
15.96336594,-73.99212000
15.96592594,-73.99212000
15.96848594,-73.99212000
15.97104594,-73.99212000
15.97360594,-69.50591000
15.97616594,-73.99212000
15.97872594,-73.99212000
15.98128594,-69.50591000
15.98384594,-73.99212000
15.98640594,-73.99212000
15.98896594,-73.99212000
15.99152594,-73.99212000
15.99408594,-73.99212000
15.99664594,-69.50591000
15.99920594,-73.99212000
16.00176594,-73.99212000
16.00432594,-73.99212000
16.00688594,-73.99212000
16.00944594,-69.50591000
16.01200594,-69.50591000
16.01456594,-73.99212000
16.01712594,-73.99212000
16.01968594,-73.99212000
16.02224594,-69.50591000
16.02480594,-73.99212000
16.02736594,-73.99212000
16.02992594,-73.99212000
16.03248594,-73.99212000
16.03504594,-73.99212000
16.03760594,-73.99212000
16.04016594,-73.99212000
16.04272594,-73.99212000
16.04528594,-73.99212000
16.04784594,-73.99212000
16.05040594,-73.99212000
16.05296594,-73.99212000
16.05552594,-73.99212000
16.05808594,-73.99212000
16.06064594,-73.99212000
16.06320594,-69.50591000
16.06576594,-73.99212000
16.06832594,-73.99212000
16.07088594,-73.99212000
16.07344594,-69.50591000
16.07600594,-73.99212000
16.07856594,-73.99212000
16.08112594,-73.99212000
16.08368594,-73.99212000
16.08624594,-73.99212000
16.08880594,-73.99212000
16.09136594,-73.99212000
16.09392594,-73.99212000
16.09648594,-73.99212000
16.09904594,-73.99212000
16.10160594,-73.99212000
16.10416594,-69.50591000
16.10672594,-73.99212000
16.10928594,-78.46308000
16.11184594,-69.50591000
16.11440594,-73.99212000
16.11696594,-73.99212000
16.11952594,-73.99212000
16.12208594,-73.99212000
16.12464594,-73.99212000
16.12720594,-73.99212000
16.12976594,-73.99212000
16.13232594,-73.99212000
16.13488594,-73.99212000
16.13744594,-73.99212000
16.14000594,-73.99212000
16.14256594,-73.99212000
16.14512594,-73.99212000
16.14768594,-73.99212000
16.15024594,-73.99212000
16.15280594,-73.99212000
16.15536594,-73.99212000
16.15792594,-73.99212000
16.16048594,-73.99212000
16.16304594,-73.99212000
16.16560594,-73.99212000
16.16816594,-73.99212000
16.17072594,-73.99212000
16.17328594,-73.99212000
16.17584594,-73.99212000
16.17840594,-73.99212000
16.18096594,-73.99212000
16.18352594,-73.99212000
16.18608594,-73.99212000
16.18864594,-73.99212000
16.19120594,-73.99212000
16.19376594,-73.99212000
16.19632594,-73.99212000
16.19888594,-73.99212000
16.20144594,-78.46308000
16.20400594,-73.99212000
16.20656594,-73.99212000
16.20912594,-73.99212000
16.21168594,-73.99212000
16.21424594,-73.99212000
16.21680594,-73.99212000
16.21936594,-73.99212000
16.22192594,-73.99212000
16.22448594,-78.46308000
16.22704594,-78.46308000
16.22960594,-73.99212000
16.23216594,-78.46308000
16.23472594,-78.46308000
16.23728594,-73.99212000
16.23984594,-73.99212000
16.24240594,-73.99212000
16.24496594,-73.99212000
16.24752594,-78.46308000
16.25008594,-73.99212000
16.25264594,-78.46308000
16.25520594,-73.99212000
16.25776594,-73.99212000
16.26032594,-78.46308000
16.26288594,-73.99212000
16.26544594,-73.99212000
16.26800594,-73.99212000
16.27056594,-78.46308000
16.27312594,-78.46308000
16.27568594,-78.46308000
16.27824594,-73.99212000
16.28080594,-78.46308000
16.28336594,-73.99212000
16.28592594,-78.46308000
16.28848594,-73.99212000
16.29104594,-78.46308000
16.29360594,-78.46308000
16.29616594,-78.46308000
16.29872594,-78.46308000
16.30128594,-73.99212000
16.30384594,-78.46308000
16.30640594,-78.46308000
16.30896594,-78.46308000
16.31152594,-78.46308000
16.31408594,-78.46308000
16.31664594,-73.99212000
16.31920594,-78.46308000
16.32176594,-78.46308000
16.32432594,-78.46308000
16.32688594,-78.46308000
16.32944594,-78.46308000
16.33200594,-78.46308000
16.33456594,-78.46308000
16.33712594,-78.46308000
16.33968594,-78.46308000
16.34224594,-78.46308000
16.34480594,-78.46308000
16.34736594,-78.46308000
16.34992594,-78.46308000
16.35248594,-78.46308000
16.35504594,-78.46308000
16.35760594,-78.46308000
16.36016594,-78.46308000
16.36272594,-78.46308000
16.36528594,-78.46308000
16.36784594,-78.46308000
16.37040594,-78.46308000
16.37296594,-73.99212000
16.37552594,-78.46308000
16.37808594,-78.46308000
16.38064594,-78.46308000
16.38320594,-78.46308000
16.38576594,-78.46308000
16.38832594,-78.46308000
16.39088594,-78.46308000
16.39344594,-78.46308000
16.39600594,-73.99212000
16.39856594,-78.46308000
16.40112594,-78.46308000
16.40368594,-78.46308000
16.40624594,-78.46308000
16.40880594,-78.46308000
16.41136594,-78.46308000
16.41392594,-78.46308000
16.41648594,-78.46308000
16.41904594,-78.46308000
16.42160594,-78.46308000
16.42416594,-78.46308000
16.42672594,-78.46308000
16.42928594,-78.46308000
16.43184594,-78.46308000
16.43440594,-78.46308000
16.43696594,-78.46308000
16.43952594,-78.46308000
16.44208594,-73.99212000
16.44464594,-78.46308000
16.44720594,-73.99212000
16.44976594,-78.46308000
16.45232594,-73.99212000
16.45488594,-78.46308000
16.45744594,-73.99212000
16.46000594,-73.99212000
16.46256594,-78.46308000
16.46512594,-78.46308000
16.46768594,-73.99212000
16.47024594,-73.99212000
16.47280594,-73.99212000
16.47536594,-73.99212000
16.47792594,-73.99212000
16.48048594,-73.99212000
16.48304594,-73.99212000
16.48560594,-78.46308000
16.48816594,-73.99212000
16.49072594,-73.99212000
16.49328594,-73.99212000
16.49584594,-73.99212000
16.49840594,-78.46308000
16.50096594,-73.99212000
16.50352594,-73.99212000
16.50608594,-73.99212000
16.50864594,-73.99212000
16.51120594,-73.99212000
16.51376594,-73.99212000
16.51632594,-73.99212000
16.51888594,-78.46308000
16.52144594,-73.99212000
16.52400594,-73.99212000
16.52656594,-73.99212000
16.52912594,-73.99212000
16.53168594,-73.99212000
16.53424594,-73.99212000
16.53680594,-73.99212000
16.53936594,-73.99212000
16.54192594,-78.46308000
16.54448594,-78.46308000
16.54704594,-73.99212000
16.54960594,-69.50591000
16.55216594,-73.99212000
16.55472594,-69.50591000
16.55728594,-73.99212000
16.55984594,-78.46308000
16.56240594,-73.99212000
16.56496594,-78.46308000
16.56752594,-73.99212000
16.57008594,-73.99212000
16.57264594,-78.46308000
16.57520594,-73.99212000
16.57776594,-73.99212000
16.58032594,-78.46308000
16.58288594,-73.99212000
16.58544594,-73.99212000
16.58800594,-73.99212000
16.59056594,-73.99212000
16.59312594,-73.99212000
16.59568594,-73.99212000
16.59824594,-73.99212000
16.60080594,-73.99212000
16.60336594,-73.99212000
16.60592594,-73.99212000
16.60848594,-73.99212000
16.61104594,-73.99212000
16.61360594,-73.99212000
16.61616594,-73.99212000
16.61872594,-73.99212000
16.62128594,-73.99212000
16.62384594,-73.99212000
16.62640594,-73.99212000
16.62896594,-73.99212000
16.63152594,-73.99212000
16.63408594,-73.99212000
16.63664594,-78.46308000
16.63920594,-73.99212000
16.64176594,-73.99212000
16.64432594,-73.99212000
16.64688594,-73.99212000
16.64944594,-73.99212000
16.65200594,-73.99212000
16.65456594,-73.99212000
16.65712594,-73.99212000
16.65968594,-73.99212000
16.66224594,-78.46308000
16.66480594,-73.99212000
16.66736594,-73.99212000
16.66992594,-73.99212000
16.67248594,-78.46308000
16.67504594,-73.99212000
16.67760594,-78.46308000
16.68016594,-73.99212000
16.68272594,-73.99212000
16.68528594,-73.99212000
16.68784594,-69.50591000
16.69040594,-73.99212000
16.69296594,-73.99212000
16.69552594,-73.99212000
16.69808594,-73.99212000
16.70064594,-73.99212000
16.70320594,-73.99212000
16.70576594,-73.99212000
16.70832594,-73.99212000
16.71088594,-73.99212000
16.71344594,-73.99212000
16.71600594,-73.99212000
16.71856594,-73.99212000
16.72112594,-73.99212000
16.72368594,-73.99212000
16.72624594,-73.99212000
16.72880594,-73.99212000
16.73136594,-73.99212000
16.73392594,-73.99212000
16.73648594,-73.99212000
16.73904594,-73.99212000
16.74160594,-73.99212000
16.74416594,-73.99212000
16.74672594,-73.99212000
16.74928594,-73.99212000
16.75184594,-73.99212000
16.75440594,-73.99212000
16.75696594,-78.46308000
16.75952594,-73.99212000
16.76208594,-73.99212000
16.76464594,-73.99212000
16.76720594,-73.99212000
16.76976594,-73.99212000
16.77232594,-73.99212000
16.77488594,-73.99212000
16.77744594,-73.99212000
16.78000594,-78.46308000
16.78256594,-69.50591000
16.78512594,-78.46308000
16.78768594,-69.50591000
16.79024594,-73.99212000
16.79280594,-73.99212000
16.79536594,-73.99212000
16.79792594,-73.99212000
16.80048594,-78.46308000
16.80304594,-73.99212000
16.80560594,-73.99212000
16.80816594,-73.99212000
16.81072594,-73.99212000
16.81328594,-73.99212000
16.81584594,-73.99212000
16.81840594,-73.99212000
16.82096594,-73.99212000
16.82352594,-78.46308000
16.82608594,-73.99212000
16.82864594,-73.99212000
16.83120594,-73.99212000
16.83376594,-73.99212000
16.83632594,-73.99212000
16.83888594,-73.99212000
16.84144594,-73.99212000
16.84400594,-73.99212000
16.84656594,-73.99212000
16.84912594,-78.46308000
16.85168594,-73.99212000
16.85424594,-69.50591000
16.85680594,-78.46308000
16.85936594,-73.99212000
16.86192594,-73.99212000
16.86448594,-73.99212000
16.86704594,-73.99212000
16.86960594,-73.99212000
16.87216594,-73.99212000
16.87472594,-73.99212000
16.87728594,-73.99212000
16.87984594,-73.99212000
16.88240594,-73.99212000
16.88496594,-73.99212000
16.88752594,-78.46308000
16.89008594,-73.99212000
16.89264594,-73.99212000
16.89520594,-73.99212000
16.89776594,-73.99212000
16.90032594,-73.99212000
16.90288594,-73.99212000
16.90544594,-69.50591000
16.90800594,-73.99212000
16.91056594,-73.99212000
16.91312594,-73.99212000
16.91568594,-73.99212000
16.91824594,-78.46308000
16.92080594,-73.99212000
16.92336594,-73.99212000
16.92592594,-73.99212000
16.92848594,-73.99212000
16.93104594,-73.99212000
16.93360594,-78.46308000
16.93616594,-73.99212000
16.93872594,-73.99212000
16.94128594,-73.99212000
16.94384594,-78.46308000
16.94640594,-73.99212000
16.94896594,-73.99212000
16.95152594,-78.46308000
16.95408594,-73.99212000
16.95664594,-73.99212000
16.95920594,-73.99212000
16.96176594,-73.99212000
16.96432594,-78.46308000
16.96688594,-73.99212000
16.96944594,-73.99212000
16.97200594,-73.99212000
16.97456594,-73.99212000
16.97712594,-73.99212000
16.97968594,-73.99212000
16.98224594,-73.99212000
16.98480594,-73.99212000
16.98736594,-73.99212000
16.98992594,-73.99212000
16.99248594,-73.99212000
16.99504594,-73.99212000
16.99760594,-73.99212000
17.00016594,-73.99212000
17.00272594,-73.99212000
17.00528594,-73.99212000
17.00784594,-73.99212000
17.01040594,-73.99212000
17.01296594,-73.99212000
17.01552594,-73.99212000
17.01808594,-78.46308000
17.02064594,-73.99212000
17.02320594,-78.46308000
17.02576594,-73.99212000
17.02832594,-73.99212000
17.03088594,-69.50591000
17.03344594,-78.46308000
17.03600594,-73.99212000
17.03856594,-73.99212000
17.04112594,-73.99212000
17.04368594,-73.99212000
17.04624594,-73.99212000
17.04880594,-73.99212000
17.05136594,-73.99212000
17.05392594,-73.99212000
17.05648594,-73.99212000
17.05904594,-73.99212000
17.06160594,-73.99212000
17.06416594,-78.46308000
17.06672594,-78.46308000
17.06928594,-73.99212000
17.07184594,-73.99212000
17.07440594,-78.46308000
17.07696594,-78.46308000
17.07952594,-78.46308000
17.08208594,-73.99212000
17.08464594,-73.99212000
17.08720594,-73.99212000
17.08976594,-73.99212000
17.09232594,-78.46308000
17.09488594,-73.99212000
17.09744594,-78.46308000
17.10000594,-73.99212000
17.10256594,-73.99212000
17.10512594,-78.46308000
17.10768594,-73.99212000
17.11024594,-73.99212000
17.11280594,-73.99212000
17.11536594,-78.46308000
17.11792594,-73.99212000
17.12048594,-78.46308000
17.12304594,-73.99212000
17.12560594,-73.99212000
17.12816594,-73.99212000
17.13072594,-73.99212000
17.13328594,-78.46308000
17.13584594,-78.46308000
17.13840594,-78.46308000
17.14096594,-78.46308000
17.14352594,-78.46308000
17.14608594,-78.46308000
17.14864594,-78.46308000
17.15120594,-78.46308000
17.15376594,-78.46308000
17.15632594,-78.46308000
17.15888594,-78.46308000
17.16144594,-78.46308000
17.16400594,-78.46308000
17.16656593,-78.46308000
17.16912593,-78.46308000
17.17168593,-78.46308000
17.17424593,-78.46308000
17.17680593,-78.46308000
17.17936593,-78.46308000
17.18192593,-78.46308000
17.18448593,-78.46308000
17.18704593,-78.46308000
17.18960593,-78.46308000
17.19216593,-78.46308000
17.19472593,-78.46308000
17.19728593,-78.46308000
17.19984593,-78.46308000
17.20240593,-78.46308000
17.20496593,-73.99212000
17.20752593,-78.46308000
17.21008593,-78.46308000
17.21264593,-78.46308000
17.21520593,-78.46308000
17.21776593,-78.46308000
17.22032593,-78.46308000
17.22288593,-78.46308000
17.22544593,-78.46308000
17.22800593,-78.46308000
17.23056593,-78.46308000
17.23312593,-78.46308000
17.23568593,-78.46308000
17.23824593,-78.46308000
17.24080593,-78.46308000
17.24336593,-78.46308000
17.24592593,-78.46308000
17.24848593,-78.46308000
17.25104593,-78.46308000
17.25360593,-73.99212000
17.25616593,-78.46308000
17.25872593,-78.46308000
17.26128593,-78.46308000
17.26384593,-78.46308000
17.26640593,-78.46308000
17.26896593,-73.99212000
17.27152593,-78.46308000
17.27408593,-78.46308000
17.27664593,-78.46308000
17.27920593,-73.99212000
17.28176593,-78.46308000
17.28432593,-78.46308000
17.28688593,-78.46308000
17.28944593,-78.46308000
17.29200593,-78.46308000
17.29456593,-78.46308000
17.29712593,-78.46308000
17.29968593,-73.99212000
17.30224593,-78.46308000
17.30480593,-78.46308000
17.30736593,-78.46308000
17.30992593,-78.46308000
17.31248593,-78.46308000
17.31504593,-78.46308000
17.31760593,-78.46308000
17.32016593,-78.46308000
17.32272593,-73.99212000
17.32528593,-73.99212000
17.32784593,-78.46308000
17.33040593,-78.46308000
17.33296593,-78.46308000
17.33552593,-78.46308000
17.33808593,-78.46308000
17.34064593,-78.46308000
17.34320593,-78.46308000
17.34576593,-73.99212000
17.34832593,-73.99212000
17.35088593,-73.99212000
17.35344593,-78.46308000
17.35600593,-73.99212000
17.35856593,-78.46308000
17.36112593,-78.46308000
17.36368593,-78.46308000
17.36624593,-78.46308000
17.36880593,-78.46308000
17.37136593,-78.46308000
17.37392593,-78.46308000
17.37648593,-78.46308000
17.37904593,-78.46308000
17.38160593,-78.46308000
17.38416593,-78.46308000
17.38672593,-78.46308000
17.38928593,-78.46308000
17.39184593,-78.46308000
17.39440593,-78.46308000
17.39696593,-78.46308000
17.39952593,-78.46308000
17.40208593,-78.46308000
17.40464593,-78.46308000
17.40720593,-78.46308000
17.40976593,-78.46308000
17.41232593,-78.46308000
17.41488593,-78.46308000
17.41744593,-78.46308000
17.42000593,-78.46308000
17.42256593,-78.46308000
17.42512593,-78.46308000
17.42768593,-78.46308000
17.43024593,-78.46308000
17.43280593,-73.99212000
17.43536593,-73.99212000
17.43792593,-78.46308000
17.44048593,-73.99212000
17.44304593,-78.46308000
17.44560593,-73.99212000
17.44816593,-78.46308000
17.45072593,-73.99212000
17.45328593,-73.99212000
17.45584593,-73.99212000
17.45840593,-73.99212000
17.46096593,-78.46308000
17.46352593,-78.46308000
17.46608593,-73.99212000
17.46864593,-78.46308000
17.47120593,-78.46308000
17.47376593,-78.46308000
17.47632593,-73.99212000
17.47888593,-78.46308000
17.48144593,-78.46308000
17.48400593,-78.46308000
17.48656593,-78.46308000
17.48912593,-78.46308000
17.49168593,-78.46308000
17.49424593,-73.99212000
17.49680593,-73.99212000
17.49936593,-73.99212000
17.50192593,-73.99212000
17.50448593,-73.99212000
17.50704593,-73.99212000
17.50960593,-73.99212000
17.51216593,-73.99212000
17.51472593,-78.46308000
17.51728593,-78.46308000
17.51984593,-78.46308000
17.52240593,-78.46308000
17.52496593,-73.99212000
17.52752593,-78.46308000
17.53008593,-78.46308000
17.53264593,-73.99212000
17.53520593,-73.99212000
17.53776593,-78.46308000
17.54032593,-78.46308000
17.54288593,-78.46308000
17.54544593,-78.46308000
17.54800593,-73.99212000
17.55056593,-73.99212000
17.55312593,-73.99212000
17.55568593,-73.99212000
17.55824593,-73.99212000
17.56080593,-78.46308000
17.56336593,-78.46308000
17.56592593,-73.99212000
17.56848593,-73.99212000
17.57104593,-78.46308000
17.57360593,-73.99212000
17.57616593,-73.99212000
17.57872593,-78.46308000
17.58128593,-78.46308000
17.58384593,-73.99212000
17.58640593,-78.46308000
17.58896593,-78.46308000
17.59152593,-78.46308000
17.59408593,-73.99212000
17.59664593,-78.46308000
17.59920593,-78.46308000
17.60176593,-73.99212000
17.60432593,-73.99212000
17.60688593,-73.99212000
17.60944593,-73.99212000
17.61200593,-78.46308000
17.61456593,-73.99212000
17.61712593,-73.99212000
17.61968593,-73.99212000
17.62224593,-73.99212000
17.62480593,-73.99212000
17.62736593,-73.99212000
17.62992593,-73.99212000
17.63248593,-78.46308000
17.63504593,-73.99212000
17.63760593,-73.99212000
17.64016593,-73.99212000
17.64272593,-73.99212000
17.64528593,-73.99212000
17.64784593,-73.99212000
17.65040593,-69.50591000
17.65296593,-73.99212000
17.65552593,-73.99212000
17.65808593,-73.99212000
17.66064593,-73.99212000
17.66320593,-73.99212000
17.66576593,-73.99212000
17.66832593,-73.99212000
17.67088593,-73.99212000
17.67344593,-73.99212000
17.67600593,-73.99212000
17.67856593,-73.99212000
17.68112593,-73.99212000
17.68368593,-73.99212000
17.68624593,-78.46308000
17.68880593,-73.99212000
17.69136593,-78.46308000
17.69392593,-73.99212000
17.69648593,-73.99212000
17.69904593,-69.50591000
17.70160593,-73.99212000
17.70416593,-73.99212000
17.70672593,-73.99212000
17.70928593,-73.99212000
17.71184593,-73.99212000
17.71440593,-73.99212000
17.71696593,-78.46308000
17.71952593,-73.99212000
17.72208593,-73.99212000
17.72464593,-69.50591000
17.72720593,-73.99212000
17.72976593,-73.99212000
17.73232593,-73.99212000
17.73488593,-73.99212000
17.73744593,-78.46308000
17.74000593,-73.99212000
17.74256593,-73.99212000
17.74512593,-73.99212000
17.74768593,-73.99212000
17.75024593,-73.99212000
17.75280593,-73.99212000
17.75536593,-73.99212000
17.75792593,-78.46308000
17.76048593,-73.99212000
17.76304593,-73.99212000
17.76560593,-73.99212000
17.76816593,-73.99212000
17.77072593,-73.99212000
17.77328593,-73.99212000
17.77584593,-73.99212000
17.77840593,-73.99212000
17.78096593,-73.99212000
17.78352593,-73.99212000
17.78608593,-69.50591000
17.78864593,-73.99212000
17.79120593,-73.99212000
17.79376593,-73.99212000
17.79632593,-73.99212000
17.79888593,-73.99212000
17.80144593,-73.99212000
17.80400593,-73.99212000
17.80656593,-73.99212000
17.80912593,-73.99212000
17.81168593,-73.99212000
17.81424593,-73.99212000
17.81680593,-73.99212000
17.81936593,-78.46308000
17.82192593,-73.99212000
17.82448593,-69.50591000
17.82704593,-73.99212000
17.82960593,-78.46308000
17.83216593,-69.50591000
17.83472593,-73.99212000
17.83728593,-73.99212000
17.83984593,-73.99212000
17.84240593,-73.99212000
17.84496593,-73.99212000
17.84752593,-78.46308000
17.85008593,-73.99212000
17.85264593,-73.99212000
17.85520593,-78.46308000
17.85776593,-78.46308000
17.86032593,-73.99212000
17.86288593,-73.99212000
17.86544593,-73.99212000
17.86800593,-73.99212000
17.87056593,-73.99212000
17.87312593,-73.99212000
17.87568593,-73.99212000
17.87824593,-78.46308000
17.88080593,-73.99212000
17.88336593,-73.99212000
17.88592593,-73.99212000
17.88848593,-78.46308000
17.89104593,-78.46308000
17.89360593,-73.99212000
17.89616593,-78.46308000
17.89872593,-78.46308000
17.90128593,-73.99212000
17.90384593,-78.46308000
17.90640593,-73.99212000
17.90896593,-78.46308000
17.91152593,-78.46308000
17.91408593,-73.99212000
17.91664593,-73.99212000
17.91920593,-73.99212000
17.92176593,-78.46308000
17.92432593,-73.99212000
17.92688593,-73.99212000
17.92944593,-73.99212000
17.93200593,-73.99212000
17.93456593,-78.46308000
17.93712593,-73.99212000
17.93968593,-73.99212000
17.94224593,-73.99212000
17.94480593,-73.99212000
17.94736593,-73.99212000
17.94992593,-78.46308000
17.95248593,-73.99212000
17.95504593,-78.46308000
17.95760593,-73.99212000
17.96016593,-78.46308000
17.96272593,-73.99212000
17.96528593,-78.46308000
17.96784593,-73.99212000
17.97040593,-73.99212000
17.97296593,-73.99212000
17.97552593,-78.46308000
17.97808593,-73.99212000
17.98064593,-78.46308000
17.98320593,-73.99212000
17.98576593,-73.99212000
17.98832593,-73.99212000
17.99088593,-73.99212000
17.99344593,-73.99212000
17.99600593,-78.46308000
17.99856593,-73.99212000
18.00112593,-73.99212000
18.00368593,-73.99212000
18.00624593,-73.99212000
18.00880593,-73.99212000
18.01136593,-73.99212000
18.01392593,-73.99212000
18.01648593,-78.46308000
18.01904593,-73.99212000
18.02160593,-73.99212000
18.02416593,-78.46308000
18.02672593,-73.99212000
18.02928593,-78.46308000
18.03184593,-73.99212000
18.03440593,-73.99212000
18.03696593,-78.46308000
18.03952593,-78.46308000
18.04208593,-73.99212000
18.04464593,-73.99212000
18.04720593,-73.99212000
18.04976593,-78.46308000
18.05232593,-73.99212000
18.05488593,-73.99212000
18.05744593,-73.99212000
18.06000593,-78.46308000
18.06256593,-73.99212000
18.06512593,-78.46308000
18.06768593,-73.99212000
18.07024593,-78.46308000
18.07280593,-73.99212000
18.07536593,-73.99212000
18.07792593,-73.99212000
18.08048593,-73.99212000
18.08304593,-73.99212000
18.08560593,-69.50591000
18.08816593,-73.99212000
18.09072593,-73.99212000
18.09328593,-73.99212000
18.09584593,-78.46308000
18.09840593,-73.99212000
18.10096593,-73.99212000
18.10352593,-73.99212000
18.10608593,-73.99212000
18.10864593,-73.99212000
18.11120593,-73.99212000
18.11376593,-73.99212000
18.11632593,-73.99212000
18.11888593,-73.99212000
18.12144593,-78.46308000
18.12400593,-73.99212000
18.12656593,-73.99212000
18.12912593,-78.46308000
18.13168593,-73.99212000
18.13424593,-73.99212000
18.13680593,-69.50591000
18.13936593,-78.46308000
18.14192593,-73.99212000
18.14448593,-69.50591000
18.14704593,-73.99212000
18.14960593,-78.46308000
18.15216593,-73.99212000
18.15472593,-73.99212000
18.15728593,-73.99212000
18.15984593,-73.99212000
18.16240593,-73.99212000
18.16496593,-73.99212000
18.16752593,-73.99212000
18.17008593,-73.99212000
18.17264593,-73.99212000
18.17520593,-73.99212000
18.17776593,-78.46308000
18.18032593,-73.99212000
18.18288593,-73.99212000
18.18544593,-73.99212000
18.18800593,-73.99212000
18.19056593,-69.50591000
18.19312593,-78.46308000
18.19568593,-73.99212000
18.19824593,-73.99212000
18.20080593,-73.99212000
18.20336593,-73.99212000
18.20592593,-69.50591000
18.20848593,-69.50591000
18.21104593,-73.99212000
18.21360593,-69.50591000
18.21616593,-73.99212000
18.21872593,-69.50591000
18.22128593,-73.99212000
18.22384593,-73.99212000
18.22640593,-73.99212000
18.22896593,-73.99212000
18.23152593,-73.99212000
18.23408593,-73.99212000
18.23664593,-69.50591000
18.23920593,-73.99212000
18.24176593,-73.99212000
18.24432593,-73.99212000
18.24688593,-69.50591000
18.24944593,-69.50591000
18.25200593,-73.99212000
18.25456593,-73.99212000
18.25712593,-73.99212000
18.25968593,-69.50591000
18.26224593,-73.99212000
18.26480593,-73.99212000
18.26736593,-69.50591000
18.26992593,-73.99212000
18.27248593,-69.50591000
18.27504593,-73.99212000
18.27760593,-73.99212000
18.28016593,-73.99212000
18.28272593,-69.50591000
18.28528593,-73.99212000
18.28784593,-73.99212000
18.29040593,-73.99212000
18.29296593,-69.50591000
18.29552593,-73.99212000
18.29808593,-73.99212000
18.30064593,-73.99212000
18.30320593,-73.99212000
18.30576593,-69.50591000
18.30832593,-73.99212000
18.31088593,-73.99212000
18.31344593,-73.99212000
18.31600593,-73.99212000
18.31856593,-73.99212000
18.32112593,-73.99212000
18.32368593,-73.99212000
18.32624593,-78.46308000
18.32880593,-78.46308000
18.33136593,-73.99212000
18.33392593,-73.99212000
18.33648593,-73.99212000
18.33904593,-78.46308000
18.34160593,-73.99212000
18.34416593,-73.99212000
18.34672593,-73.99212000
18.34928593,-73.99212000
18.35184593,-73.99212000
18.35440593,-73.99212000
18.35696593,-78.46308000
18.35952593,-73.99212000
18.36208593,-73.99212000
18.36464593,-73.99212000
18.36720593,-73.99212000
18.36976593,-73.99212000
18.37232593,-73.99212000
18.37488593,-78.46308000
18.37744593,-73.99212000
18.38000593,-73.99212000
18.38256593,-73.99212000
18.38512593,-73.99212000
18.38768593,-73.99212000
18.39024593,-73.99212000
18.39280593,-78.46308000
18.39536593,-73.99212000
18.39792593,-73.99212000
18.40048593,-78.46308000
18.40304593,-78.46308000
18.40560593,-73.99212000
18.40816593,-78.46308000
18.41072593,-78.46308000
18.41328593,-73.99212000
18.41584593,-73.99212000
18.41840593,-73.99212000
18.42096593,-78.46308000
18.42352593,-78.46308000
18.42608593,-78.46308000
18.42864593,-73.99212000
18.43120593,-78.46308000
18.43376593,-78.46308000
18.43632593,-73.99212000
18.43888593,-73.99212000
18.44144593,-73.99212000
18.44400593,-73.99212000
18.44656593,-73.99212000
18.44912593,-78.46308000
18.45168593,-78.46308000
18.45424593,-78.46308000
18.45680593,-78.46308000
18.45936593,-73.99212000
18.46192593,-78.46308000
18.46448593,-78.46308000
18.46704593,-73.99212000
18.46960593,-73.99212000
18.47216593,-73.99212000
18.47472593,-78.46308000
18.47728593,-78.46308000
18.47984593,-73.99212000
18.48240593,-78.46308000
18.48496593,-78.46308000
18.48752593,-73.99212000
18.49008593,-78.46308000
18.49264593,-73.99212000
18.49520593,-78.46308000
18.49776593,-78.46308000
18.50032593,-78.46308000
18.50288593,-78.46308000
18.50544593,-73.99212000
18.50800593,-78.46308000
18.51056593,-78.46308000
18.51312593,-73.99212000
18.51568593,-78.46308000
18.51824593,-78.46308000
18.52080593,-73.99212000
18.52336593,-78.46308000
18.52592593,-78.46308000
18.52848593,-73.99212000
18.53104593,-78.46308000
18.53360593,-78.46308000
18.53616593,-78.46308000
18.53872593,-78.46308000
18.54128593,-78.46308000
18.54384593,-73.99212000
18.54640593,-78.46308000
18.54896593,-78.46308000
18.55152593,-78.46308000
18.55408593,-78.46308000
18.55664593,-73.99212000
18.55920593,-78.46308000
18.56176593,-73.99212000
18.56432593,-73.99212000
18.56688593,-78.46308000
18.56944593,-78.46308000
18.57200593,-78.46308000
18.57456593,-73.99212000
18.57712593,-78.46308000
18.57968593,-73.99212000
18.58224593,-78.46308000
18.58480593,-73.99212000
18.58736593,-78.46308000
18.58992593,-73.99212000
18.59248593,-78.46308000
18.59504593,-78.46308000
18.59760593,-73.99212000
18.60016593,-73.99212000
18.60272593,-73.99212000
18.60528593,-73.99212000
18.60784593,-73.99212000
18.61040593,-73.99212000
18.61296593,-73.99212000
18.61552593,-78.46308000
18.61808593,-73.99212000
18.62064593,-78.46308000
18.62320593,-73.99212000
18.62576593,-78.46308000
18.62832593,-78.46308000
18.63088593,-73.99212000
18.63344593,-73.99212000
18.63600593,-73.99212000
18.63856593,-78.46308000
18.64112593,-73.99212000
18.64368593,-78.46308000
18.64624593,-73.99212000
18.64880593,-78.46308000
18.65136593,-78.46308000
18.65392593,-73.99212000
18.65648593,-78.46308000
18.65904593,-78.46308000
18.66160593,-78.46308000
18.66416593,-78.46308000
18.66672593,-78.46308000
18.66928593,-78.46308000
18.67184593,-78.46308000
18.67440593,-78.46308000
18.67696593,-78.46308000
18.67952593,-78.46308000
