Time,Invert B
(ms),(mV)

-1.32240495,-69.50591000
-1.31984495,-69.50591000
-1.31728495,-73.99212000
-1.31472495,-69.50591000
-1.31216495,-73.99212000
-1.30960495,-73.99212000
-1.30704495,-73.99212000
-1.30448495,-73.99212000
-1.30192495,-73.99212000
-1.29936495,-73.99212000
-1.29680495,-73.99212000
-1.29424495,-69.50591000
-1.29168495,-73.99212000
-1.28912495,-73.99212000
-1.28656495,-73.99212000
-1.28400495,-73.99212000
-1.28144495,-69.50591000
-1.27888495,-69.50591000
-1.27632495,-73.99212000
-1.27376495,-73.99212000
-1.27120495,-73.99212000
-1.26864495,-69.50591000
-1.26608495,-73.99212000
-1.26352495,-73.99212000
-1.26096495,-73.99212000
-1.25840495,-69.50591000
-1.25584495,-73.99212000
-1.25328495,-69.50591000
-1.25072495,-69.50591000
-1.24816495,-73.99212000
-1.24560495,-69.50591000
-1.24304495,-73.99212000
-1.24048495,-73.99212000
-1.23792495,-73.99212000
-1.23536495,-73.99212000
-1.23280495,-73.99212000
-1.23024495,-73.99212000
-1.22768495,-69.50591000
-1.22512495,-69.50591000
-1.22256495,-73.99212000
-1.22000495,-73.99212000
-1.21744495,-73.99212000
-1.21488495,-69.50591000
-1.21232495,-73.99212000
-1.20976495,-73.99212000
-1.20720495,-73.99212000
-1.20464495,-73.99212000
-1.20208495,-73.99212000
-1.19952495,-73.99212000
-1.19696495,-73.99212000
-1.19440495,-73.99212000
-1.19184495,-73.99212000
-1.18928495,-73.99212000
-1.18672495,-73.99212000
-1.18416495,-73.99212000
-1.18160495,-73.99212000
-1.17904495,-73.99212000
-1.17648495,-73.99212000
-1.17392495,-73.99212000
-1.17136495,-73.99212000
-1.16880495,-73.99212000
-1.16624495,-73.99212000
-1.16368495,-73.99212000
-1.16112495,-73.99212000
-1.15856495,-73.99212000
-1.15600495,-73.99212000
-1.15344495,-73.99212000
-1.15088495,-73.99212000
-1.14832495,-73.99212000
-1.14576495,-73.99212000
-1.14320495,-73.99212000
-1.14064495,-73.99212000
-1.13808495,-73.99212000
-1.13552495,-73.99212000
-1.13296495,-73.99212000
-1.13040495,-73.99212000
-1.12784495,-73.99212000
-1.12528495,-73.99212000
-1.12272495,-73.99212000
-1.12016495,-69.50591000
-1.11760495,-73.99212000
-1.11504495,-73.99212000
-1.11248495,-69.50591000
-1.10992495,-73.99212000
-1.10736495,-73.99212000
-1.10480495,-73.99212000
-1.10224495,-73.99212000
-1.09968495,-73.99212000
-1.09712495,-73.99212000
-1.09456495,-69.50591000
-1.09200495,-73.99212000
-1.08944495,-73.99212000
-1.08688495,-73.99212000
-1.08432495,-73.99212000
-1.08176495,-73.99212000
-1.07920495,-73.99212000
-1.07664495,-73.99212000
-1.07408495,-73.99212000
-1.07152495,-73.99212000
-1.06896495,-73.99212000
-1.06640495,-73.99212000
-1.06384495,-69.50591000
-1.06128495,-73.99212000
-1.05872495,-73.99212000
-1.05616495,-73.99212000
-1.05360495,-73.99212000
-1.05104495,-73.99212000
-1.04848495,-73.99212000
-1.04592495,-73.99212000
-1.04336495,-73.99212000
-1.04080495,-73.99212000
-1.03824495,-73.99212000
-1.03568495,-69.50591000
-1.03312495,-73.99212000
-1.03056495,-73.99212000
-1.02800495,-73.99212000
-1.02544495,-73.99212000
-1.02288495,-73.99212000
-1.02032495,-73.99212000
-1.01776495,-69.50591000
-1.01520495,-73.99212000
-1.01264495,-73.99212000
-1.01008495,-73.99212000
-1.00752495,-69.50591000
-1.00496495,-73.99212000
-1.00240495,-69.50591000
-0.99984495,-69.50591000
-0.99728495,-73.99212000
-0.99472495,-73.99212000
-0.99216495,-73.99212000
-0.98960495,-73.99212000
-0.98704495,-69.50591000
-0.98448495,-73.99212000
-0.98192495,-69.50591000
-0.97936495,-73.99212000
-0.97680495,-73.99212000
-0.97424495,-73.99212000
-0.97168495,-73.99212000
-0.96912495,-73.99212000
-0.96656495,-73.99212000
-0.96400495,-73.99212000
-0.96144495,-73.99212000
-0.95888495,-73.99212000
-0.95632495,-73.99212000
-0.95376495,-73.99212000
-0.95120495,-73.99212000
-0.94864495,-69.50591000
-0.94608495,-69.50591000
-0.94352495,-73.99212000
-0.94096495,-73.99212000
-0.93840495,-73.99212000
-0.93584495,-73.99212000
-0.93328495,-73.99212000
-0.93072495,-73.99212000
-0.92816495,-73.99212000
-0.92560495,-73.99212000
-0.92304495,-73.99212000
-0.92048495,-73.99212000
-0.91792495,-73.99212000
-0.91536495,-69.50591000
-0.91280495,-73.99212000
-0.91024495,-69.50591000
-0.90768495,-73.99212000
-0.90512495,-73.99212000
-0.90256495,-73.99212000
-0.90000495,-69.50591000
-0.89744495,-73.99212000
-0.89488495,-73.99212000
-0.89232495,-73.99212000
-0.88976495,-73.99212000
-0.88720495,-73.99212000
-0.88464495,-73.99212000
-0.88208495,-73.99212000
-0.87952495,-73.99212000
-0.87696495,-73.99212000
-0.87440495,-73.99212000
-0.87184495,-73.99212000
-0.86928495,-69.50591000
-0.86672495,-78.46308000
-0.86416495,-69.50591000
-0.86160495,-69.50591000
-0.85904495,-73.99212000
-0.85648495,-73.99212000
-0.85392495,-73.99212000
-0.85136495,-73.99212000
-0.84880495,-73.99212000
-0.84624495,-73.99212000
-0.84368495,-73.99212000
-0.84112495,-73.99212000
-0.83856495,-78.46308000
-0.83600495,-73.99212000
-0.83344495,-69.50591000
-0.83088495,-73.99212000
-0.82832495,-78.46308000
-0.82576495,-73.99212000
-0.82320495,-78.46308000
-0.82064495,-73.99212000
-0.81808495,-78.46308000
-0.81552495,-69.50591000
-0.81296495,-87.40501000
-0.81040495,-69.50591000
-0.80784495,-78.46308000
-0.80528495,-105.28880000
-0.80272495,-123.17270000
-0.80016495,-141.07180000
-0.79760495,-154.48470000
-0.79504495,-163.42660000
-0.79248495,-172.36850000
-0.78992495,-176.83950000
-0.78736495,-185.78140000
-0.78480495,-194.73860000
-0.78224495,-194.73860000
-0.77968495,-203.68050000
-0.77712495,-208.15150000
-0.77456495,-212.62240000
-0.77200495,-217.09340000
-0.76944495,-221.56440000
-0.76688495,-226.03530000
-0.76432495,-230.50630000
-0.76176495,-230.50630000
-0.75920495,-230.50630000
-0.75664495,-239.44820000
-0.75408495,-239.44820000
-0.75152495,-239.44820000
-0.74896495,-243.91920000
-0.74640495,-243.91920000
-0.74384495,-243.91920000
-0.74128495,-248.40540000
-0.73872495,-248.40540000
-0.73616495,-248.40540000
-0.73360495,-248.40540000
-0.73104495,-248.40540000
-0.72848495,-248.40540000
-0.72592495,-248.40540000
-0.72336495,-248.40540000
-0.72080495,-243.91920000
-0.71824495,-243.91920000
-0.71568495,-243.91920000
-0.71312495,-243.91920000
-0.71056495,-239.44820000
-0.70800495,-239.44820000
-0.70544495,-239.44820000
-0.70288495,-234.97720000
-0.70032495,-230.50630000
-0.69776495,-230.50630000
-0.69520495,-230.50630000
-0.69264495,-226.03530000
-0.69008495,-226.03530000
-0.68752495,-221.56440000
-0.68496495,-221.56440000
-0.68240495,-217.09340000
-0.67984495,-212.62240000
-0.67728495,-212.62240000
-0.67472495,-208.15150000
-0.67216495,-203.68050000
-0.66960495,-203.68050000
-0.66704495,-199.20960000
-0.66448495,-194.73860000
-0.66192495,-194.73860000
-0.65936495,-194.73860000
-0.65680495,-190.26760000
-0.65424495,-185.78140000
-0.65168495,-181.31050000
-0.64912495,-176.83950000
-0.64656495,-176.83950000
-0.64400495,-172.36850000
-0.64144495,-167.89760000
-0.63888495,-167.89760000
-0.63632495,-158.95570000
-0.63376495,-158.95570000
-0.63120495,-158.95570000
-0.62864495,-154.48470000
-0.62608495,-150.01370000
-0.62352495,-150.01370000
-0.62096495,-141.07180000
-0.61840495,-141.07180000
-0.61584495,-136.60080000
-0.61328495,-136.60080000
-0.61072495,-132.12990000
-0.60816495,-127.64370000
-0.60560495,-123.17270000
-0.60304495,-123.17270000
-0.60048495,-123.17270000
-0.59792495,-118.70170000
-0.59536495,-114.23080000
-0.59280495,-114.23080000
-0.59024495,-109.75980000
-0.58768495,-105.28880000
-0.58512495,-105.28880000
-0.58256495,-100.81790000
-0.58000495,-100.81790000
-0.57744495,-96.34693000
-0.57488495,-96.34693000
-0.57232495,-91.87596000
-0.56976495,-87.40501000
-0.56720495,-87.40501000
-0.56464495,-87.40501000
-0.56208495,-82.93404000
-0.55952495,-82.93404000
-0.55696495,-78.46308000
-0.55440495,-78.46308000
-0.55184495,-73.99212000
-0.54928495,-69.50591000
-0.54672495,-69.50591000
-0.54416495,-69.50591000
-0.54160495,-65.03493000
-0.53904495,-65.03493000
-0.53648495,-60.56398000
-0.53392495,-60.56398000
-0.53136495,-60.56398000
-0.52880495,-56.09302000
-0.52624495,-51.62206000
-0.52368495,-51.62206000
-0.52112495,-51.62206000
-0.51856495,-51.62206000
-0.51600495,-47.15109000
-0.51344495,-47.15109000
-0.51088495,-42.68013000
-0.50832495,-42.68013000
-0.50576495,-42.68013000
-0.50320495,-42.68013000
-0.50064495,-38.20917000
-0.49808495,-38.20917000
-0.49552495,-33.73821000
-0.49296495,-33.73821000
-0.49040495,-33.73821000
-0.48784495,-33.73821000
-0.48528495,-33.73821000
-0.48272495,-33.73821000
-0.48016495,-29.26725000
-0.47760495,-29.26725000
-0.47504495,-29.26725000
-0.47248495,-29.26725000
-0.46992495,-24.79629000
-0.46736495,-24.79629000
-0.46480495,-24.79629000
-0.46224495,-24.79629000
-0.45968495,-24.79629000
-0.45712495,-24.79629000
-0.45456495,-20.32533000
-0.45200495,-20.32533000
-0.44944495,-20.32533000
-0.44688495,-20.32533000
-0.44432495,-15.85437000
-0.44176495,-15.85437000
-0.43920495,-15.85437000
-0.43664495,-15.85437000
-0.43408495,-15.85437000
-0.43152495,-15.85437000
-0.42896495,-15.85437000
-0.42640495,-15.85437000
-0.42384495,-15.85437000
-0.42128495,-15.85437000
-0.41872495,-15.85437000
-0.41616495,-11.38340000
-0.41360495,-11.38340000
-0.41104495,-11.38340000
-0.40848495,-11.38340000
-0.40592495,-11.38340000
-0.40336495,-11.38340000
-0.40080495,-11.38340000
-0.39824495,-11.38340000
-0.39568495,-11.38340000
-0.39312495,-11.38340000
-0.39056495,-11.38340000
-0.38800495,-11.38340000
-0.38544495,-11.38340000
-0.38288495,-11.38340000
-0.38032495,-11.38340000
-0.37776495,-11.38340000
-0.37520495,-6.91244200
-0.37264495,-6.91244200
-0.37008495,-6.91244200
-0.36752495,-6.91244200
-0.36496495,-11.38340000
-0.36240495,-11.38340000
-0.35984495,-11.38340000
-0.35728495,-6.91244200
-0.35472495,-11.38340000
-0.35216495,-11.38340000
-0.34960495,-6.91244200
-0.34704495,-11.38340000
-0.34448495,-11.38340000
-0.34192495,-6.91244200
-0.33936495,-11.38340000
-0.33680495,-11.38340000
-0.33424495,-11.38340000
-0.33168495,-11.38340000
-0.32912495,-11.38340000
-0.32656495,-11.38340000
-0.32400495,-11.38340000
-0.32144495,-11.38340000
-0.31888495,-11.38340000
-0.31632495,-11.38340000
-0.31376495,-11.38340000
-0.31120495,-11.38340000
-0.30864495,-15.85437000
-0.30608495,-15.85437000
-0.30352495,-15.85437000
-0.30096495,-11.38340000
-0.29840495,-15.85437000
-0.29584495,-15.85437000
-0.29328495,-15.85437000
-0.29072495,10.97140000
-0.28816495,91.46397000
-0.28560495,189.85560000
-0.28304495,261.40630000
-0.28048495,315.07310000
-0.27792495,350.85600000
-0.27536495,382.15270000
-0.27280495,404.52280000
-0.27024495,422.40670000
-0.26768495,444.77670000
-0.26512495,458.18960000
-0.26256495,476.07350000
-0.26000495,493.95730000
-0.25744495,Infinity
-0.25488495,Infinity
-0.25232495,Infinity
-0.24976495,Infinity
-0.24720495,Infinity
-0.24464495,Infinity
-0.24208495,Infinity
-0.23952495,Infinity
-0.23696495,Infinity
-0.23440495,Infinity
-0.23184495,Infinity
-0.22928495,Infinity
-0.22672495,Infinity
-0.22416495,Infinity
-0.22160495,Infinity
-0.21904495,Infinity
-0.21648495,Infinity
-0.21392495,Infinity
-0.21136495,Infinity
-0.20880495,Infinity
-0.20624495,Infinity
-0.20368495,Infinity
-0.20112495,Infinity
-0.19856495,Infinity
-0.19600495,Infinity
-0.19344495,Infinity
-0.19088495,Infinity
-0.18832495,Infinity
-0.18576495,Infinity
-0.18320495,Infinity
-0.18064495,Infinity
-0.17808495,Infinity
-0.17552495,Infinity
-0.17296495,Infinity
-0.17040495,Infinity
-0.16784495,Infinity
-0.16528495,Infinity
-0.16272495,Infinity
-0.16016495,Infinity
-0.15760495,Infinity
-0.15504495,Infinity
-0.15248495,493.95730000
-0.14992495,485.01540000
-0.14736495,476.07350000
-0.14480495,467.13150000
-0.14224495,458.18960000
-0.13968495,449.24770000
-0.13712495,440.29050000
-0.13456495,431.34860000
-0.13200495,422.40670000
-0.12944495,413.46470000
-0.12688495,400.05190000
-0.12432495,395.58090000
-0.12176495,386.63900000
-0.11920495,373.21080000
-0.11664495,364.26890000
-0.11408495,355.32700000
-0.11152495,346.38510000
-0.10896495,332.97220000
-0.10640495,324.01500000
-0.10384495,315.07310000
-0.10128495,306.13110000
-0.09872495,297.18920000
-0.09616495,288.24730000
-0.09360495,279.30540000
-0.09104495,270.36350000
-0.08848495,261.40630000
-0.08592495,252.46440000
-0.08336495,243.52240000
-0.08080495,234.58050000
-0.07824495,221.16760000
-0.07568495,216.69670000
-0.07312495,207.73950000
-0.07056495,198.79760000
-0.06800495,189.85560000
-0.06544495,180.91370000
-0.06288495,171.97180000
-0.06032495,163.02990000
-0.05776495,154.07270000
-0.05520495,145.13080000
-0.05264495,136.18880000
-0.05008495,131.71790000
-0.04752495,122.77600000
-0.04496495,113.83400000
-0.04240495,104.89210000
-0.03984495,95.93493000
-0.03728495,91.46397000
-0.03472495,82.52204000
-0.03216495,73.58012000
-0.02960495,64.63820000
-0.02704496,60.16724000
-0.02448496,55.69627000
-0.02192496,46.75435000
-0.01936496,37.79717000
-0.01680496,28.85525000
-0.01424496,28.85525000
-0.01168496,19.91333000
-0.00912496,10.97140000
-0.00656496,6.50044200
-0.00400496,-2.44148100
-0.00144496,-6.91244200
0.00111504,-11.38340000
0.00367504,-15.85437000
0.00623504,-24.79629000
0.00879504,-29.26725000
0.01135504,-33.73821000
0.01391504,-42.68013000
0.01647504,-47.15109000
0.01903504,-51.62206000
0.02159504,-56.09302000
0.02415504,-60.56398000
0.02671504,-69.50591000
0.02927504,-73.99212000
0.03183504,-78.46308000
0.03439504,-87.40501000
0.03695504,-87.40501000
0.03951504,-96.34693000
0.04207504,-96.34693000
0.04463504,-100.81790000
0.04719504,-105.28880000
0.04975504,-109.75980000
0.05231504,-114.23080000
0.05487504,-118.70170000
0.05743504,-123.17270000
0.05999504,-123.17270000
0.06255504,-132.12990000
0.06511504,-136.60080000
0.06767504,-141.07180000
0.07023504,-141.07180000
0.07279504,-145.54280000
0.07535504,-150.01370000
0.07791504,-154.48470000
0.08047504,-154.48470000
0.08303504,-158.95570000
0.08559504,-158.95570000
0.08815504,-167.89760000
0.09071504,-167.89760000
0.09327504,-172.36850000
0.09583504,-176.83950000
0.09839504,-176.83950000
0.10095504,-176.83950000
0.10351504,-181.31050000
0.10607504,-181.31050000
0.10863504,-185.78140000
0.11119504,-190.26760000
0.11375504,-194.73860000
0.11631504,-194.73860000
0.11887504,-194.73860000
0.12143504,-199.20960000
0.12399504,-203.68050000
0.12655504,-203.68050000
0.12911504,-208.15150000
0.13167504,-208.15150000
0.13423504,-212.62240000
0.13679504,-212.62240000
0.13935504,-212.62240000
0.14191504,-217.09340000
0.14447504,-217.09340000
0.14703504,-221.56440000
0.14959504,-221.56440000
0.15215504,-221.56440000
0.15471504,-221.56440000
0.15727504,-226.03530000
0.15983504,-226.03530000
0.16239504,-230.50630000
0.16495504,-230.50630000
0.16751504,-230.50630000
0.17007504,-230.50630000
0.17263504,-230.50630000
0.17519504,-234.97720000
0.17775504,-239.44820000
0.18031504,-239.44820000
0.18287504,-239.44820000
0.18543504,-239.44820000
0.18799504,-239.44820000
0.19055504,-239.44820000
0.19311504,-243.91920000
0.19567504,-243.91920000
0.19823504,-243.91920000
0.20079504,-243.91920000
0.20335504,-243.91920000
0.20591504,-248.40540000
0.20847504,-248.40540000
0.21103504,-248.40540000
0.21359504,-248.40540000
0.21615504,-248.40540000
0.21871504,-248.40540000
0.22127504,-248.40540000
0.22383504,-248.40540000
0.22639504,-248.40540000
0.22895504,-248.40540000
0.23151504,-248.40540000
0.23407504,-252.87640000
0.23663504,-248.40540000
0.23919504,-252.87640000
0.24175504,-252.87640000
0.24431504,-248.40540000
0.24687504,-252.87640000
0.24943504,-252.87640000
0.25199504,-252.87640000
0.25455504,-257.34730000
0.25711504,-252.87640000
0.25967504,-257.34730000
0.26223504,-257.34730000
0.26479504,-252.87640000
0.26735504,-257.34730000
0.26991504,-252.87640000
0.27247504,-252.87640000
0.27503504,-257.34730000
0.27759504,-257.34730000
0.28015504,-252.87640000
0.28271504,-252.87640000
0.28527504,-252.87640000
0.28783504,-257.34730000
0.29039504,-252.87640000
0.29295504,-252.87640000
0.29551504,-252.87640000
0.29807504,-257.34730000
0.30063504,-252.87640000
0.30319504,-252.87640000
0.30575504,-252.87640000
0.30831504,-252.87640000
0.31087504,-252.87640000
0.31343504,-248.40540000
0.31599504,-252.87640000
0.31855504,-252.87640000
0.32111504,-252.87640000
0.32367504,-248.40540000
0.32623504,-248.40540000
0.32879504,-248.40540000
0.33135504,-248.40540000
0.33391504,-248.40540000
0.33647504,-248.40540000
0.33903504,-248.40540000
0.34159504,-248.40540000
0.34415504,-248.40540000
0.34671504,-248.40540000
0.34927504,-248.40540000
0.35183504,-248.40540000
0.35439504,-248.40540000
0.35695504,-248.40540000
0.35951504,-243.91920000
0.36207504,-243.91920000
0.36463504,-243.91920000
0.36719504,-243.91920000
0.36975504,-243.91920000
0.37231504,-243.91920000
0.37487504,-243.91920000
0.37743504,-239.44820000
0.37999504,-243.91920000
0.38255504,-239.44820000
0.38511504,-239.44820000
0.38767504,-239.44820000
0.39023504,-239.44820000
0.39279504,-239.44820000
0.39535504,-239.44820000
0.39791504,-239.44820000
0.40047504,-239.44820000
0.40303504,-239.44820000
0.40559504,-234.97720000
0.40815504,-230.50630000
0.41071504,-234.97720000
0.41327504,-230.50630000
0.41583504,-234.97720000
0.41839504,-230.50630000
0.42095504,-230.50630000
0.42351504,-230.50630000
0.42607504,-230.50630000
0.42863504,-230.50630000
0.43119504,-230.50630000
0.43375504,-230.50630000
0.43631504,-230.50630000
0.43887504,-226.03530000
0.44143504,-230.50630000
0.44399504,-226.03530000
0.44655504,-226.03530000
0.44911504,-226.03530000
0.45167504,-221.56440000
0.45423504,-221.56440000
0.45679504,-221.56440000
0.45935504,-221.56440000
0.46191504,-221.56440000
0.46447504,-221.56440000
0.46703504,-221.56440000
0.46959504,-221.56440000
0.47215504,-221.56440000
0.47471504,-221.56440000
0.47727504,-221.56440000
0.47983504,-217.09340000
0.48239504,-217.09340000
0.48495504,-212.62240000
0.48751504,-212.62240000
0.49007504,-212.62240000
0.49263504,-212.62240000
0.49519504,-212.62240000
0.49775504,-212.62240000
0.50031504,-212.62240000
0.50287504,-212.62240000
0.50543504,-212.62240000
0.50799504,-212.62240000
0.51055504,-208.15150000
0.51311504,-208.15150000
0.51567504,-208.15150000
0.51823504,-208.15150000
0.52079504,-203.68050000
0.52335504,-203.68050000
0.52591504,-203.68050000
0.52847504,-203.68050000
0.53103504,-203.68050000
0.53359504,-203.68050000
0.53615504,-203.68050000
0.53871504,-203.68050000
0.54127504,-199.20960000
0.54383504,-199.20960000
0.54639504,-199.20960000
0.54895504,-199.20960000
0.55151504,-194.73860000
0.55407504,-199.20960000
0.55663504,-194.73860000
0.55919504,-194.73860000
0.56175504,-194.73860000
0.56431504,-194.73860000
0.56687504,-194.73860000
0.56943504,-194.73860000
0.57199504,-194.73860000
0.57455504,-190.26760000
0.57711504,-194.73860000
0.57967504,-190.26760000
0.58223504,-190.26760000
0.58479504,-190.26760000
0.58735504,-185.78140000
0.58991504,-190.26760000
0.59247504,-185.78140000
0.59503504,-185.78140000
0.59759504,-185.78140000
0.60015504,-185.78140000
0.60271504,-185.78140000
0.60527504,-185.78140000
0.60783504,-185.78140000
0.61039504,-185.78140000
0.61295504,-185.78140000
0.61551504,-181.31050000
0.61807504,-185.78140000
0.62063504,-181.31050000
0.62319504,-181.31050000
0.62575504,-181.31050000
0.62831504,-176.83950000
0.63087504,-176.83950000
0.63343504,-176.83950000
0.63599504,-176.83950000
0.63855504,-176.83950000
0.64111504,-176.83950000
0.64367504,-176.83950000
0.64623504,-176.83950000
0.64879504,-176.83950000
0.65135504,-176.83950000
0.65391504,-176.83950000
0.65647504,-172.36850000
0.65903504,-176.83950000
0.66159504,-176.83950000
0.66415504,-172.36850000
0.66671504,-172.36850000
0.66927504,-172.36850000
0.67183504,-167.89760000
0.67439504,-172.36850000
0.67695504,-172.36850000
0.67951504,-167.89760000
0.68207504,-167.89760000
0.68463504,-167.89760000
0.68719504,-167.89760000
0.68975504,-167.89760000
0.69231504,-167.89760000
0.69487504,-167.89760000
0.69743504,-167.89760000
0.69999504,-167.89760000
0.70255504,-167.89760000
0.70511504,-163.42660000
0.70767504,-163.42660000
0.71023504,-163.42660000
0.71279504,-158.95570000
0.71535504,-158.95570000
0.71791504,-158.95570000
0.72047504,-158.95570000
0.72303504,-158.95570000
0.72559504,-158.95570000
0.72815504,-158.95570000
0.73071504,-158.95570000
0.73327504,-158.95570000
0.73583504,-158.95570000
0.73839504,-158.95570000
0.74095504,-158.95570000
0.74351504,-158.95570000
0.74607504,-158.95570000
0.74863504,-158.95570000
0.75119504,-154.48470000
0.75375504,-154.48470000
0.75631504,-154.48470000
0.75887504,-154.48470000
0.76143504,-154.48470000
0.76399504,-154.48470000
0.76655504,-150.01370000
0.76911504,-150.01370000
0.77167504,-154.48470000
0.77423504,-150.01370000
0.77679504,-150.01370000
0.77935504,-150.01370000
0.78191504,-150.01370000
0.78447504,-150.01370000
0.78703504,-150.01370000
0.78959504,-150.01370000
0.79215504,-150.01370000
0.79471504,-150.01370000
0.79727504,-150.01370000
0.79983504,-145.54280000
0.80239504,-145.54280000
0.80495504,-145.54280000
0.80751504,-145.54280000
0.81007504,-145.54280000
0.81263504,-145.54280000
0.81519504,-141.07180000
0.81775504,-141.07180000
0.82031504,-141.07180000
0.82287504,-141.07180000
0.82543504,-141.07180000
0.82799504,-141.07180000
0.83055504,-141.07180000
0.83311504,-141.07180000
0.83567504,-141.07180000
0.83823504,-141.07180000
0.84079504,-141.07180000
0.84335504,-141.07180000
0.84591504,-141.07180000
0.84847504,-141.07180000
0.85103504,-141.07180000
0.85359504,-141.07180000
0.85615504,-136.60080000
0.85871504,-136.60080000
0.86127504,-136.60080000
0.86383504,-136.60080000
0.86639504,-136.60080000
0.86895504,-136.60080000
0.87151504,-136.60080000
0.87407504,-136.60080000
0.87663504,-136.60080000
0.87919504,-132.12990000
0.88175504,-132.12990000
0.88431504,-132.12990000
0.88687504,-132.12990000
0.88943504,-132.12990000
0.89199504,-132.12990000
0.89455504,-132.12990000
0.89711504,-132.12990000
0.89967504,-132.12990000
0.90223504,-132.12990000
0.90479504,-132.12990000
0.90735504,-127.64370000
0.90991504,-127.64370000
0.91247504,-127.64370000
0.91503504,-127.64370000
0.91759504,-127.64370000
0.92015504,-132.12990000
0.92271504,-123.17270000
0.92527504,-123.17270000
0.92783504,-123.17270000
0.93039504,-123.17270000
0.93295504,-123.17270000
0.93551504,-123.17270000
0.93807504,-123.17270000
0.94063504,-123.17270000
0.94319504,-123.17270000
0.94575504,-123.17270000
0.94831504,-123.17270000
0.95087504,-123.17270000
0.95343504,-123.17270000
0.95599504,-123.17270000
0.95855504,-123.17270000
0.96111504,-123.17270000
0.96367504,-123.17270000
0.96623504,-123.17270000
0.96879504,-123.17270000
0.97135504,-123.17270000
0.97391504,-118.70170000
0.97647504,-118.70170000
0.97903504,-118.70170000
0.98159504,-118.70170000
0.98415504,-118.70170000
0.98671504,-118.70170000
0.98927504,-118.70170000
0.99183504,-118.70170000
0.99439504,-118.70170000
0.99695504,-118.70170000
0.99951504,-118.70170000
1.00207504,-118.70170000
1.00463504,-118.70170000
1.00719504,-118.70170000
1.00975504,-114.23080000
1.01231504,-118.70170000
1.01487504,-118.70170000
1.01743504,-114.23080000
1.01999504,-118.70170000
1.02255504,-118.70170000
1.02511504,-114.23080000
1.02767504,-114.23080000
1.03023504,-114.23080000
1.03279504,-114.23080000
1.03535504,-114.23080000
1.03791504,-114.23080000
1.04047504,-114.23080000
1.04303504,-114.23080000
1.04559504,-114.23080000
1.04815504,-114.23080000
1.05071504,-109.75980000
1.05327504,-109.75980000
1.05583504,-114.23080000
1.05839504,-109.75980000
1.06095504,-109.75980000
1.06351504,-114.23080000
1.06607504,-114.23080000
1.06863504,-109.75980000
1.07119504,-109.75980000
1.07375504,-114.23080000
1.07631504,-109.75980000
1.07887504,-109.75980000
1.08143504,-105.28880000
1.08399504,-105.28880000
1.08655504,-105.28880000
1.08911504,-105.28880000
1.09167504,-105.28880000
1.09423504,-105.28880000
1.09679504,-105.28880000
1.09935504,-105.28880000
1.10191504,-105.28880000
1.10447504,-105.28880000
1.10703504,-105.28880000
1.10959504,-105.28880000
1.11215504,-105.28880000
1.11471504,-105.28880000
1.11727504,-105.28880000
1.11983504,-105.28880000
1.12239504,-105.28880000
1.12495504,-105.28880000
1.12751504,-105.28880000
1.13007504,-105.28880000
1.13263504,-105.28880000
1.13519504,-105.28880000
1.13775504,-105.28880000
1.14031504,-100.81790000
1.14287504,-105.28880000
1.14543504,-100.81790000
1.14799504,-100.81790000
1.15055504,-105.28880000
1.15311504,-100.81790000
1.15567504,-100.81790000
1.15823504,-100.81790000
1.16079504,-100.81790000
1.16335504,-100.81790000
1.16591504,-100.81790000
1.16847504,-100.81790000
1.17103504,-100.81790000
1.17359504,-100.81790000
1.17615504,-100.81790000
1.17871504,-100.81790000
1.18127504,-100.81790000
1.18383504,-100.81790000
1.18639504,-96.34693000
1.18895504,-100.81790000
1.19151504,-100.81790000
1.19407504,-100.81790000
1.19663504,-96.34693000
1.19919504,-96.34693000
1.20175504,-96.34693000
1.20431504,-96.34693000
1.20687504,-96.34693000
1.20943504,-96.34693000
1.21199504,-96.34693000
1.21455504,-96.34693000
1.21711504,-96.34693000
1.21967504,-96.34693000
1.22223504,-96.34693000
1.22479504,-96.34693000
1.22735504,-96.34693000
1.22991504,-96.34693000
1.23247504,-96.34693000
1.23503504,-96.34693000
1.23759504,-96.34693000
1.24015504,-96.34693000
1.24271504,-96.34693000
1.24527504,-96.34693000
1.24783504,-96.34693000
1.25039504,-96.34693000
1.25295504,-96.34693000
1.25551504,-96.34693000
1.25807504,-96.34693000
1.26063504,-96.34693000
1.26319504,-96.34693000
1.26575504,-96.34693000
1.26831504,-96.34693000
1.27087504,-96.34693000
1.27343504,-91.87596000
1.27599504,-91.87596000
1.27855504,-96.34693000
1.28111504,-91.87596000
1.28367504,-91.87596000
1.28623504,-91.87596000
1.28879504,-91.87596000
1.29135504,-96.34693000
1.29391504,-91.87596000
1.29647504,-91.87596000
1.29903504,-91.87596000
1.30159504,-91.87596000
1.30415504,-91.87596000
1.30671504,-91.87596000
1.30927504,-91.87596000
1.31183504,-91.87596000
1.31439504,-91.87596000
1.31695504,-91.87596000
1.31951504,-91.87596000
1.32207504,-91.87596000
1.32463504,-91.87596000
1.32719504,-87.40501000
1.32975504,-87.40501000
1.33231504,-87.40501000
1.33487504,-87.40501000
1.33743504,-87.40501000
1.33999504,-87.40501000
1.34255504,-87.40501000
1.34511504,-87.40501000
1.34767504,-87.40501000
1.35023504,-87.40501000
1.35279504,-87.40501000
1.35535504,-87.40501000
1.35791504,-87.40501000
1.36047504,-87.40501000
1.36303504,-87.40501000
1.36559504,-87.40501000
1.36815504,-87.40501000
1.37071504,-87.40501000
1.37327504,-87.40501000
1.37583504,-87.40501000
1.37839504,-87.40501000
1.38095504,-87.40501000
1.38351504,-87.40501000
1.38607504,-87.40501000
1.38863504,-87.40501000
1.39119504,-87.40501000
1.39375504,-87.40501000
1.39631504,-87.40501000
1.39887504,-87.40501000
1.40143504,-87.40501000
1.40399504,-87.40501000
1.40655504,-87.40501000
1.40911504,-87.40501000
1.41167504,-87.40501000
1.41423504,-87.40501000
1.41679504,-87.40501000
1.41935504,-82.93404000
1.42191504,-87.40501000
1.42447504,-82.93404000
1.42703504,-87.40501000
1.42959504,-87.40501000
1.43215504,-82.93404000
1.43471504,-82.93404000
1.43727504,-82.93404000
1.43983504,-82.93404000
1.44239504,-82.93404000
1.44495504,-82.93404000
1.44751504,-82.93404000
1.45007504,-82.93404000
1.45263504,-82.93404000
1.45519504,-82.93404000
1.45775504,-82.93404000
1.46031504,-82.93404000
1.46287504,-82.93404000
1.46543504,-82.93404000
1.46799504,-82.93404000
1.47055504,-82.93404000
1.47311504,-82.93404000
1.47567504,-82.93404000
1.47823504,-82.93404000
1.48079504,-82.93404000
1.48335504,-82.93404000
1.48591504,-82.93404000
1.48847504,-78.46308000
1.49103504,-82.93404000
1.49359504,-82.93404000
1.49615504,-82.93404000
1.49871504,-78.46308000
1.50127504,-82.93404000
1.50383504,-78.46308000
1.50639504,-82.93404000
1.50895504,-78.46308000
1.51151504,-78.46308000
1.51407504,-78.46308000
1.51663504,-82.93404000
1.51919504,-78.46308000
1.52175504,-82.93404000
1.52431504,-82.93404000
1.52687504,-82.93404000
1.52943504,-78.46308000
1.53199504,-78.46308000
1.53455504,-78.46308000
1.53711504,-78.46308000
1.53967504,-82.93404000
1.54223504,-78.46308000
1.54479504,-78.46308000
1.54735504,-78.46308000
1.54991504,-78.46308000
1.55247504,-78.46308000
1.55503504,-78.46308000
1.55759504,-78.46308000
1.56015504,-78.46308000
1.56271504,-78.46308000
1.56527504,-78.46308000
1.56783504,-78.46308000
1.57039504,-78.46308000
1.57295504,-78.46308000
1.57551504,-78.46308000
1.57807504,-78.46308000
1.58063504,-78.46308000
1.58319504,-78.46308000
1.58575504,-78.46308000
1.58831504,-78.46308000
1.59087504,-78.46308000
1.59343504,-78.46308000
1.59599504,-78.46308000
1.59855504,-78.46308000
1.60111504,-78.46308000
1.60367504,-78.46308000
1.60623504,-78.46308000
1.60879504,-78.46308000
1.61135504,-78.46308000
1.61391504,-78.46308000
1.61647504,-78.46308000
1.61903503,-78.46308000
1.62159503,-78.46308000
1.62415503,-78.46308000
1.62671503,-78.46308000
1.62927503,-78.46308000
1.63183503,-78.46308000
1.63439503,-78.46308000
1.63695503,-78.46308000
1.63951503,-78.46308000
1.64207503,-78.46308000
1.64463503,-78.46308000
1.64719503,-78.46308000
1.64975503,-78.46308000
1.65231503,-78.46308000
1.65487503,-78.46308000
1.65743503,-78.46308000
1.65999503,-78.46308000
1.66255503,-78.46308000
1.66511503,-78.46308000
1.66767503,-78.46308000
1.67023503,-78.46308000
1.67279503,-78.46308000
1.67535503,-78.46308000
1.67791503,-78.46308000
1.68047503,-78.46308000
1.68303503,-78.46308000
1.68559503,-78.46308000
1.68815503,-78.46308000
1.69071503,-78.46308000
1.69327503,-78.46308000
1.69583503,-78.46308000
1.69839503,-78.46308000
1.70095503,-78.46308000
1.70351503,-78.46308000
1.70607503,-73.99212000
1.70863503,-78.46308000
1.71119503,-78.46308000
1.71375503,-78.46308000
1.71631503,-78.46308000
1.71887503,-78.46308000
1.72143503,-78.46308000
1.72399503,-73.99212000
1.72655503,-73.99212000
1.72911503,-73.99212000
1.73167503,-78.46308000
1.73423503,-73.99212000
1.73679503,-78.46308000
1.73935503,-78.46308000
1.74191503,-78.46308000
1.74447503,-73.99212000
1.74703503,-73.99212000
1.74959503,-73.99212000
1.75215503,-73.99212000
1.75471503,-73.99212000
1.75727503,-73.99212000
1.75983503,-78.46308000
1.76239503,-73.99212000
1.76495503,-73.99212000
1.76751503,-73.99212000
1.77007503,-73.99212000
1.77263503,-78.46308000
1.77519503,-73.99212000
1.77775503,-78.46308000
1.78031503,-73.99212000
1.78287503,-73.99212000
1.78543503,-73.99212000
1.78799503,-73.99212000
1.79055503,-78.46308000
1.79311503,-78.46308000
1.79567503,-73.99212000
1.79823503,-73.99212000
1.80079503,-73.99212000
1.80335503,-73.99212000
1.80591503,-73.99212000
1.80847503,-73.99212000
1.81103503,-73.99212000
1.81359503,-69.50591000
1.81615503,-78.46308000
1.81871503,-78.46308000
1.82127503,-73.99212000
1.82383503,-73.99212000
1.82639503,-73.99212000
1.82895503,-73.99212000
1.83151503,-73.99212000
1.83407503,-73.99212000
1.83663503,-69.50591000
1.83919503,-73.99212000
1.84175503,-73.99212000
1.84431503,-73.99212000
1.84687503,-73.99212000
1.84943503,-73.99212000
1.85199503,-73.99212000
1.85455503,-73.99212000
1.85711503,-73.99212000
1.85967503,-73.99212000
1.86223503,-73.99212000
1.86479503,-73.99212000
1.86735503,-73.99212000
1.86991503,-73.99212000
1.87247503,-73.99212000
1.87503503,-73.99212000
1.87759503,-73.99212000
1.88015503,-78.46308000
1.88271503,-73.99212000
1.88527503,-73.99212000
1.88783503,-73.99212000
1.89039503,-73.99212000
1.89295503,-73.99212000
1.89551503,-69.50591000
1.89807503,-73.99212000
1.90063503,-73.99212000
1.90319503,-73.99212000
1.90575503,-73.99212000
1.90831503,-69.50591000
1.91087503,-69.50591000
1.91343503,-69.50591000
1.91599503,-69.50591000
1.91855503,-73.99212000
1.92111503,-69.50591000
1.92367503,-69.50591000
1.92623503,-69.50591000
1.92879503,-73.99212000
1.93135503,-73.99212000
1.93391503,-73.99212000
1.93647503,-73.99212000
1.93903503,-69.50591000
1.94159503,-73.99212000
1.94415503,-73.99212000
1.94671503,-69.50591000
1.94927503,-73.99212000
1.95183503,-69.50591000
1.95439503,-69.50591000
1.95695503,-69.50591000
1.95951503,-73.99212000
1.96207503,-69.50591000
1.96463503,-69.50591000
1.96719503,-73.99212000
1.96975503,-69.50591000
1.97231503,-69.50591000
1.97487503,-69.50591000
1.97743503,-69.50591000
1.97999503,-73.99212000
1.98255503,-69.50591000
1.98511503,-73.99212000
1.98767503,-69.50591000
1.99023503,-69.50591000
1.99279503,-69.50591000
1.99535503,-69.50591000
1.99791503,-69.50591000
2.00047503,-69.50591000
2.00303503,-69.50591000
2.00559503,-69.50591000
2.00815503,-69.50591000
2.01071503,-69.50591000
2.01327503,-69.50591000
2.01583503,-69.50591000
2.01839503,-69.50591000
2.02095503,-69.50591000
2.02351503,-69.50591000
2.02607503,-69.50591000
2.02863503,-73.99212000
2.03119503,-69.50591000
2.03375503,-69.50591000
2.03631503,-69.50591000
2.03887503,-69.50591000
2.04143503,-69.50591000
2.04399503,-69.50591000
2.04655503,-69.50591000
2.04911503,-73.99212000
2.05167503,-69.50591000
2.05423503,-69.50591000
2.05679503,-69.50591000
2.05935503,-69.50591000
2.06191503,-69.50591000
2.06447503,-73.99212000
2.06703503,-69.50591000
2.06959503,-73.99212000
2.07215503,-69.50591000
2.07471503,-69.50591000
2.07727503,-69.50591000
2.07983503,-69.50591000
2.08239503,-69.50591000
2.08495503,-69.50591000
2.08751503,-69.50591000
2.09007503,-69.50591000
2.09263503,-69.50591000
2.09519503,-69.50591000
2.09775503,-69.50591000
2.10031503,-69.50591000
2.10287503,-73.99212000
2.10543503,-73.99212000
2.10799503,-69.50591000
2.11055503,-73.99212000
2.11311503,-73.99212000
2.11567503,-69.50591000
2.11823503,-69.50591000
2.12079503,-73.99212000
2.12335503,-73.99212000
2.12591503,-69.50591000
2.12847503,-73.99212000
2.13103503,-73.99212000
2.13359503,-73.99212000
2.13615503,-73.99212000
2.13871503,-73.99212000
2.14127503,-73.99212000
2.14383503,-73.99212000
2.14639503,-73.99212000
2.14895503,-78.46308000
2.15151503,-73.99212000
2.15407503,-73.99212000
2.15663503,-78.46308000
2.15919503,-78.46308000
2.16175503,-78.46308000
2.16431503,-78.46308000
2.16687503,-78.46308000
2.16943503,-78.46308000
2.17199503,-78.46308000
2.17455503,-78.46308000
2.17711503,-78.46308000
2.17967503,-78.46308000
2.18223503,-78.46308000
2.18479503,-78.46308000
2.18735503,-78.46308000
2.18991503,-78.46308000
2.19247503,-78.46308000
2.19503503,-78.46308000
2.19759503,-78.46308000
2.20015503,-78.46308000
2.20271503,-82.93404000
2.20527503,-78.46308000
2.20783503,-82.93404000
2.21039503,-82.93404000
2.21295503,-82.93404000
2.21551503,-82.93404000
2.21807503,-82.93404000
2.22063503,-82.93404000
2.22319503,-87.40501000
2.22575503,-87.40501000
2.22831503,-87.40501000
2.23087503,-87.40501000
2.23343503,-87.40501000
2.23599503,-87.40501000
2.23855503,-87.40501000
2.24111503,-87.40501000
2.24367503,-87.40501000
2.24623503,-87.40501000
2.24879503,-87.40501000
2.25135503,-87.40501000
2.25391503,-87.40501000
2.25647503,-91.87596000
2.25903503,-87.40501000
2.26159503,-91.87596000
2.26415503,-91.87596000
2.26671503,-91.87596000
2.26927503,-91.87596000
2.27183503,-96.34693000
2.27439503,-96.34693000
2.27695503,-96.34693000
2.27951503,-96.34693000
2.28207503,-96.34693000
2.28463503,-96.34693000
2.28719503,-96.34693000
2.28975503,-96.34693000
2.29231503,-96.34693000
2.29487503,-100.81790000
2.29743503,-96.34693000
2.29999503,-100.81790000
2.30255503,-100.81790000
2.30511503,-100.81790000
2.30767503,-100.81790000
2.31023503,-105.28880000
2.31279503,-105.28880000
2.31535503,-105.28880000
2.31791503,-105.28880000
2.32047503,-105.28880000
2.32303503,-105.28880000
2.32559503,-105.28880000
2.32815503,-105.28880000
2.33071503,-105.28880000
2.33327503,-109.75980000
2.33583503,-105.28880000
2.33839503,-105.28880000
2.34095503,-105.28880000
2.34351503,-109.75980000
2.34607503,-105.28880000
2.34863503,-109.75980000
2.35119503,-109.75980000
2.35375503,-109.75980000
2.35631503,-114.23080000
2.35887503,-114.23080000
2.36143503,-109.75980000
2.36399503,-114.23080000
2.36655503,-114.23080000
2.36911503,-114.23080000
2.37167503,-114.23080000
2.37423503,-114.23080000
2.37679503,-114.23080000
2.37935503,-114.23080000
2.38191503,-114.23080000
2.38447503,-114.23080000
2.38703503,-114.23080000
2.38959503,-114.23080000
2.39215503,-114.23080000
2.39471503,-114.23080000
2.39727503,-114.23080000
2.39983503,-114.23080000
2.40239503,-114.23080000
2.40495503,-114.23080000
2.40751503,-118.70170000
2.41007503,-114.23080000
2.41263503,-114.23080000
2.41519503,-118.70170000
2.41775503,-118.70170000
2.42031503,-118.70170000
2.42287503,-118.70170000
2.42543503,-118.70170000
2.42799503,-118.70170000
2.43055503,-118.70170000
2.43311503,-118.70170000
2.43567503,-118.70170000
2.43823503,-118.70170000
2.44079503,-118.70170000
2.44335503,-118.70170000
2.44591503,-118.70170000
2.44847503,-118.70170000
2.45103503,-118.70170000
2.45359503,-118.70170000
2.45615503,-118.70170000
2.45871503,-118.70170000
2.46127503,-118.70170000
2.46383503,-118.70170000
2.46639503,-118.70170000
2.46895503,-118.70170000
2.47151503,-118.70170000
2.47407503,-118.70170000
2.47663503,-118.70170000
2.47919503,-118.70170000
2.48175503,-118.70170000
2.48431503,-118.70170000
2.48687503,-118.70170000
2.48943503,-118.70170000
2.49199503,-118.70170000
2.49455503,-118.70170000
2.49711503,-118.70170000
2.49967503,-118.70170000
2.50223503,-118.70170000
2.50479503,-118.70170000
2.50735503,-114.23080000
2.50991503,-114.23080000
2.51247503,-114.23080000
2.51503503,-114.23080000
2.51759503,-114.23080000
2.52015503,-118.70170000
2.52271503,-118.70170000
2.52527503,-118.70170000
2.52783503,-114.23080000
2.53039503,-114.23080000
2.53295503,-114.23080000
2.53551503,-114.23080000
2.53807503,-118.70170000
2.54063503,-114.23080000
2.54319503,-114.23080000
2.54575503,-114.23080000
2.54831503,-114.23080000
2.55087503,-114.23080000
2.55343503,-114.23080000
2.55599503,-114.23080000
2.55855503,-114.23080000
2.56111503,-114.23080000
2.56367503,-114.23080000
2.56623503,-114.23080000
2.56879503,-114.23080000
2.57135503,-109.75980000
2.57391503,-114.23080000
2.57647503,-114.23080000
2.57903503,-109.75980000
2.58159503,-109.75980000
2.58415503,-109.75980000
2.58671503,-105.28880000
2.58927503,-109.75980000
2.59183503,-105.28880000
2.59439503,-109.75980000
2.59695503,-109.75980000
2.59951503,-105.28880000
2.60207503,-105.28880000
2.60463503,-105.28880000
2.60719503,-105.28880000
2.60975503,-105.28880000
2.61231503,-109.75980000
2.61487503,-105.28880000
2.61743503,-105.28880000
2.61999503,-105.28880000
2.62255503,-105.28880000
2.62511503,-105.28880000
2.62767503,-105.28880000
2.63023503,-105.28880000
2.63279503,-105.28880000
2.63535503,-105.28880000
2.63791503,-105.28880000
2.64047503,-105.28880000
2.64303503,-100.81790000
2.64559503,-105.28880000
2.64815503,-105.28880000
2.65071503,-100.81790000
2.65327503,-100.81790000
2.65583503,-100.81790000
2.65839503,-100.81790000
2.66095503,-100.81790000
2.66351503,-100.81790000
2.66607503,-100.81790000
2.66863503,-96.34693000
2.67119503,-96.34693000
2.67375503,-96.34693000
2.67631503,-96.34693000
2.67887503,-96.34693000
2.68143503,-96.34693000
2.68399503,-96.34693000
2.68655503,-96.34693000
2.68911503,-96.34693000
2.69167503,-96.34693000
2.69423503,-96.34693000
2.69679503,-91.87596000
2.69935503,-91.87596000
2.70191503,-91.87596000
2.70447503,-91.87596000
2.70703503,-87.40501000
2.70959503,-87.40501000
2.71215503,-87.40501000
2.71471503,-87.40501000
2.71727503,-87.40501000
2.71983503,-87.40501000
2.72239503,-87.40501000
2.72495503,-87.40501000
2.72751503,-87.40501000
2.73007503,-82.93404000
2.73263503,-82.93404000
2.73519503,-82.93404000
2.73775503,-82.93404000
2.74031503,-82.93404000
2.74287503,-78.46308000
2.74543503,-78.46308000
2.74799503,-78.46308000
2.75055503,-78.46308000
2.75311503,-78.46308000
2.75567503,-78.46308000
2.75823503,-73.99212000
2.76079503,-73.99212000
2.76335503,-73.99212000
2.76591503,-73.99212000
2.76847503,-69.50591000
2.77103503,-69.50591000
2.77359503,-69.50591000
2.77615503,-69.50591000
2.77871503,-69.50591000
2.78127503,-65.03493000
2.78383503,-69.50591000
2.78639503,-65.03493000
2.78895503,-65.03493000
2.79151503,-65.03493000
2.79407503,-60.56398000
2.79663503,-60.56398000
2.79919503,-60.56398000
2.80175503,-60.56398000
2.80431503,-60.56398000
2.80687503,-60.56398000
2.80943503,-60.56398000
2.81199503,-60.56398000
2.81455503,-56.09302000
2.81711503,-56.09302000
2.81967503,-56.09302000
2.82223503,-51.62206000
2.82479503,-51.62206000
2.82735503,-51.62206000
2.82991503,-51.62206000
2.83247503,-51.62206000
2.83503503,-51.62206000
2.83759503,-51.62206000
2.84015503,-51.62206000
2.84271503,-47.15109000
2.84527503,-47.15109000
2.84783503,-42.68013000
2.85039503,-47.15109000
2.85295503,-42.68013000
2.85551503,-42.68013000
2.85807503,-42.68013000
2.86063503,-42.68013000
2.86319503,-42.68013000
2.86575503,-42.68013000
2.86831503,-42.68013000
2.87087503,-42.68013000
2.87343503,-42.68013000
2.87599503,-38.20917000
2.87855503,-38.20917000
2.88111503,-38.20917000
2.88367503,-38.20917000
2.88623503,-33.73821000
2.88879503,-33.73821000
2.89135503,-33.73821000
2.89391503,-33.73821000
2.89647503,-33.73821000
2.89903503,-33.73821000
2.90159503,-33.73821000
2.90415503,-33.73821000
2.90671503,-33.73821000
2.90927503,-33.73821000
2.91183503,-33.73821000
2.91439503,-33.73821000
2.91695503,-33.73821000
2.91951503,-33.73821000
2.92207503,-33.73821000
2.92463503,-33.73821000
2.92719503,-33.73821000
2.92975503,-29.26725000
2.93231503,-29.26725000
2.93487503,-29.26725000
2.93743503,-29.26725000
2.93999503,-29.26725000
2.94255503,-29.26725000
2.94511503,-29.26725000
2.94767503,-29.26725000
2.95023503,-24.79629000
2.95279503,-29.26725000
2.95535503,-29.26725000
2.95791503,-24.79629000
2.96047503,-24.79629000
2.96303503,-24.79629000
2.96559503,-24.79629000
2.96815503,-24.79629000
2.97071503,-24.79629000
2.97327503,-24.79629000
2.97583503,-24.79629000
2.97839503,-24.79629000
2.98095503,-24.79629000
2.98351503,-24.79629000
2.98607503,-24.79629000
2.98863503,-24.79629000
2.99119503,-24.79629000
2.99375503,-24.79629000
2.99631503,-24.79629000
2.99887503,-24.79629000
3.00143503,-24.79629000
3.00399503,-24.79629000
3.00655503,-24.79629000
3.00911503,-24.79629000
3.01167503,-24.79629000
3.01423503,-24.79629000
3.01679503,-24.79629000
3.01935503,-24.79629000
3.02191503,-24.79629000
3.02447503,-24.79629000
3.02703503,-24.79629000
3.02959503,-24.79629000
3.03215503,-24.79629000
3.03471503,-24.79629000
3.03727503,-24.79629000
3.03983503,-24.79629000
3.04239503,-24.79629000
3.04495503,-24.79629000
3.04751503,-24.79629000
3.05007503,-24.79629000
3.05263503,-24.79629000
3.05519503,-24.79629000
3.05775503,-24.79629000
3.06031503,-24.79629000
3.06287503,-24.79629000
3.06543503,-24.79629000
3.06799503,-24.79629000
3.07055503,-24.79629000
3.07311503,-24.79629000
3.07567503,-24.79629000
3.07823503,-24.79629000
3.08079503,-24.79629000
3.08335503,-24.79629000
3.08591503,-24.79629000
3.08847503,-24.79629000
3.09103503,-24.79629000
3.09359503,-24.79629000
3.09615503,-24.79629000
3.09871503,-24.79629000
3.10127503,-24.79629000
3.10383503,-24.79629000
3.10639503,-24.79629000
3.10895503,-24.79629000
3.11151503,-24.79629000
3.11407503,-29.26725000
3.11663503,-24.79629000
3.11919503,-24.79629000
3.12175503,-24.79629000
3.12431503,-24.79629000
3.12687503,-24.79629000
3.12943503,-24.79629000
3.13199503,-24.79629000
3.13455503,-24.79629000
3.13711503,-24.79629000
3.13967503,-29.26725000
3.14223503,-29.26725000
3.14479503,-24.79629000
3.14735503,-24.79629000
3.14991503,-29.26725000
3.15247503,-29.26725000
3.15503503,-29.26725000
3.15759503,-29.26725000
3.16015503,-29.26725000
3.16271503,-29.26725000
3.16527503,-29.26725000
3.16783503,-33.73821000
3.17039503,-29.26725000
3.17295503,-29.26725000
3.17551503,-33.73821000
3.17807503,-33.73821000
3.18063503,-33.73821000
3.18319503,-29.26725000
3.18575503,-33.73821000
3.18831503,-33.73821000
3.19087503,-29.26725000
3.19343503,-33.73821000
3.19599503,-33.73821000
3.19855503,-33.73821000
3.20111503,-33.73821000
3.20367503,-33.73821000
3.20623503,-33.73821000
3.20879503,-33.73821000
3.21135503,-33.73821000
3.21391503,-33.73821000
3.21647503,-33.73821000
3.21903503,-33.73821000
3.22159503,-33.73821000
3.22415503,-33.73821000
3.22671503,-33.73821000
3.22927503,-33.73821000
3.23183503,-33.73821000
3.23439503,-33.73821000
3.23695503,-38.20917000
3.23951503,-33.73821000
3.24207503,-33.73821000
3.24463503,-38.20917000
3.24719503,-38.20917000
3.24975503,-33.73821000
3.25231503,-38.20917000
3.25487503,-42.68013000
3.25743503,-38.20917000
3.25999503,-38.20917000
3.26255503,-42.68013000
3.26511502,-38.20917000
3.26767502,-42.68013000
3.27023502,-42.68013000
3.27279502,-42.68013000
3.27535502,-42.68013000
3.27791502,-42.68013000
3.28047502,-42.68013000
3.28303502,-42.68013000
3.28559502,-42.68013000
3.28815502,-42.68013000
3.29071502,-42.68013000
3.29327502,-42.68013000
3.29583502,-42.68013000
3.29839502,-42.68013000
3.30095502,-42.68013000
3.30351502,-47.15109000
3.30607502,-47.15109000
3.30863502,-47.15109000
3.31119502,-47.15109000
3.31375502,-47.15109000
3.31631502,-47.15109000
3.31887502,-51.62206000
3.32143502,-51.62206000
3.32399502,-47.15109000
3.32655502,-51.62206000
3.32911502,-51.62206000
3.33167502,-51.62206000
3.33423502,-51.62206000
3.33679502,-51.62206000
3.33935502,-51.62206000
3.34191502,-51.62206000
3.34447502,-51.62206000
3.34703502,-51.62206000
3.34959502,-51.62206000
3.35215502,-51.62206000
3.35471502,-51.62206000
3.35727502,-51.62206000
3.35983502,-56.09302000
3.36239502,-51.62206000
3.36495502,-51.62206000
3.36751502,-51.62206000
3.37007502,-51.62206000
3.37263502,-56.09302000
3.37519502,-56.09302000
3.37775502,-56.09302000
3.38031502,-56.09302000
3.38287502,-56.09302000
3.38543502,-56.09302000
3.38799502,-60.56398000
3.39055502,-60.56398000
3.39311502,-60.56398000
3.39567502,-60.56398000
3.39823502,-60.56398000
3.40079502,-60.56398000
3.40335502,-60.56398000
3.40591502,-60.56398000
3.40847502,-60.56398000
3.41103502,-60.56398000
3.41359502,-60.56398000
3.41615502,-60.56398000
3.41871502,-60.56398000
3.42127502,-60.56398000
3.42383502,-65.03493000
3.42639502,-60.56398000
3.42895502,-65.03493000
3.43151502,-60.56398000
3.43407502,-65.03493000
3.43663502,-65.03493000
3.43919502,-65.03493000
3.44175502,-65.03493000
3.44431502,-65.03493000
3.44687502,-65.03493000
3.44943502,-65.03493000
3.45199502,-65.03493000
3.45455502,-65.03493000
3.45711502,-65.03493000
3.45967502,-65.03493000
3.46223502,-65.03493000
3.46479502,-65.03493000
3.46735502,-65.03493000
3.46991502,-69.50591000
3.47247502,-69.50591000
3.47503502,-65.03493000
3.47759502,-65.03493000
3.48015502,-69.50591000
3.48271502,-69.50591000
3.48527502,-69.50591000
3.48783502,-65.03493000
3.49039502,-65.03493000
3.49295502,-69.50591000
3.49551502,-65.03493000
3.49807502,-69.50591000
3.50063502,-69.50591000
3.50319502,-69.50591000
3.50575502,-69.50591000
3.50831502,-69.50591000
3.51087502,-69.50591000
3.51343502,-69.50591000
3.51599502,-69.50591000
3.51855502,-69.50591000
3.52111502,-69.50591000
3.52367502,-69.50591000
3.52623502,-69.50591000
3.52879502,-69.50591000
3.53135502,-69.50591000
3.53391502,-69.50591000
3.53647502,-69.50591000
3.53903502,-69.50591000
3.54159502,-69.50591000
3.54415502,-69.50591000
3.54671502,-69.50591000
3.54927502,-69.50591000
3.55183502,-69.50591000
3.55439502,-69.50591000
3.55695502,-69.50591000
3.55951502,-69.50591000
3.56207502,-69.50591000
3.56463502,-69.50591000
3.56719502,-69.50591000
3.56975502,-69.50591000
3.57231502,-69.50591000
3.57487502,-69.50591000
3.57743502,-69.50591000
3.57999502,-69.50591000
3.58255502,-69.50591000
3.58511502,-69.50591000
3.58767502,-69.50591000
3.59023502,-69.50591000
3.59279502,-69.50591000
3.59535502,-69.50591000
3.59791502,-69.50591000
3.60047502,-73.99212000
3.60303502,-69.50591000
3.60559502,-69.50591000
3.60815502,-69.50591000
3.61071502,-73.99212000
3.61327502,-69.50591000
3.61583502,-69.50591000
3.61839502,-69.50591000
3.62095502,-69.50591000
3.62351502,-69.50591000
3.62607502,-73.99212000
3.62863502,-69.50591000
3.63119502,-73.99212000
3.63375502,-73.99212000
3.63631502,-73.99212000
3.63887502,-73.99212000
3.64143502,-69.50591000
3.64399502,-73.99212000
3.64655502,-73.99212000
3.64911502,-69.50591000
3.65167502,-73.99212000
3.65423502,-73.99212000
3.65679502,-73.99212000
3.65935502,-73.99212000
3.66191502,-73.99212000
3.66447502,-73.99212000
3.66703502,-73.99212000
3.66959502,-73.99212000
3.67215502,-73.99212000
3.67471502,-73.99212000
3.67727502,-73.99212000
3.67983502,-73.99212000
3.68239502,-73.99212000
3.68495502,-73.99212000
3.68751502,-73.99212000
3.69007502,-73.99212000
3.69263502,-73.99212000
3.69519502,-73.99212000
3.69775502,-73.99212000
3.70031502,-73.99212000
3.70287502,-73.99212000
3.70543502,-73.99212000
3.70799502,-73.99212000
3.71055502,-73.99212000
3.71311502,-73.99212000
3.71567502,-69.50591000
3.71823502,-73.99212000
3.72079502,-73.99212000
3.72335502,-73.99212000
3.72591502,-73.99212000
3.72847502,-73.99212000
3.73103502,-73.99212000
3.73359502,-78.46308000
3.73615502,-73.99212000
3.73871502,-78.46308000
3.74127502,-73.99212000
3.74383502,-73.99212000
3.74639502,-73.99212000
3.74895502,-73.99212000
3.75151502,-73.99212000
3.75407502,-73.99212000
3.75663502,-73.99212000
3.75919502,-73.99212000
3.76175502,-73.99212000
3.76431502,-73.99212000
3.76687502,-73.99212000
3.76943502,-73.99212000
3.77199502,-73.99212000
3.77455502,-69.50591000
3.77711502,-73.99212000
3.77967502,-73.99212000
3.78223502,-73.99212000
3.78479502,-73.99212000
3.78735502,-73.99212000
3.78991502,-73.99212000
3.79247502,-73.99212000
3.79503502,-78.46308000
3.79759502,-73.99212000
3.80015502,-73.99212000
3.80271502,-73.99212000
3.80527502,-73.99212000
3.80783502,-73.99212000
3.81039502,-73.99212000
3.81295502,-73.99212000
3.81551502,-73.99212000
3.81807502,-69.50591000
3.82063502,-73.99212000
3.82319502,-73.99212000
3.82575502,-73.99212000
3.82831502,-73.99212000
3.83087502,-73.99212000
3.83343502,-73.99212000
3.83599502,-73.99212000
3.83855502,-73.99212000
3.84111502,-73.99212000
3.84367502,-73.99212000
3.84623502,-78.46308000
3.84879502,-73.99212000
3.85135502,-73.99212000
3.85391502,-73.99212000
3.85647502,-73.99212000
3.85903502,-78.46308000
3.86159502,-73.99212000
3.86415502,-73.99212000
3.86671502,-69.50591000
3.86927502,-73.99212000
3.87183502,-73.99212000
3.87439502,-73.99212000
3.87695502,-73.99212000
3.87951502,-73.99212000
3.88207502,-73.99212000
3.88463502,-73.99212000
3.88719502,-73.99212000
3.88975502,-73.99212000
3.89231502,-73.99212000
3.89487502,-73.99212000
3.89743502,-73.99212000
3.89999502,-73.99212000
3.90255502,-73.99212000
3.90511502,-73.99212000
3.90767502,-73.99212000
3.91023502,-73.99212000
3.91279502,-73.99212000
3.91535502,-69.50591000
3.91791502,-73.99212000
3.92047502,-69.50591000
3.92303502,-69.50591000
3.92559502,-69.50591000
3.92815502,-73.99212000
3.93071502,-73.99212000
3.93327502,-69.50591000
3.93583502,-73.99212000
3.93839502,-73.99212000
3.94095502,-73.99212000
3.94351502,-73.99212000
3.94607502,-73.99212000
3.94863502,-73.99212000
3.95119502,-73.99212000
3.95375502,-73.99212000
3.95631502,-69.50591000
3.95887502,-73.99212000
3.96143502,-69.50591000
3.96399502,-73.99212000
3.96655502,-69.50591000
3.96911502,-69.50591000
3.97167502,-73.99212000
3.97423502,-73.99212000
3.97679502,-73.99212000
3.97935502,-73.99212000
3.98191502,-69.50591000
3.98447502,-73.99212000
3.98703502,-69.50591000
3.98959502,-69.50591000
3.99215502,-69.50591000
3.99471502,-69.50591000
3.99727502,-73.99212000
3.99983502,-69.50591000
4.00239502,-69.50591000
4.00495502,-69.50591000
4.00751502,-69.50591000
4.01007502,-69.50591000
4.01263502,-73.99212000
4.01519502,-69.50591000
4.01775502,-69.50591000
4.02031502,-69.50591000
4.02287502,-69.50591000
4.02543502,-69.50591000
4.02799502,-69.50591000
4.03055502,-69.50591000
4.03311502,-73.99212000
4.03567502,-69.50591000
4.03823502,-69.50591000
4.04079502,-69.50591000
4.04335502,-69.50591000
4.04591502,-69.50591000
4.04847502,-69.50591000
4.05103502,-69.50591000
4.05359502,-69.50591000
4.05615502,-69.50591000
4.05871502,-69.50591000
4.06127502,-69.50591000
4.06383502,-69.50591000
4.06639502,-69.50591000
4.06895502,-69.50591000
4.07151502,-69.50591000
4.07407502,-69.50591000
4.07663502,-69.50591000
4.07919502,-69.50591000
4.08175502,-69.50591000
4.08431502,-69.50591000
4.08687502,-69.50591000
4.08943502,-69.50591000
4.09199502,-73.99212000
4.09455502,-69.50591000
4.09711502,-69.50591000
4.09967502,-69.50591000
4.10223502,-69.50591000
4.10479502,-69.50591000
4.10735502,-69.50591000
4.10991502,-69.50591000
4.11247502,-69.50591000
4.11503502,-69.50591000
4.11759502,-69.50591000
4.12015502,-69.50591000
4.12271502,-69.50591000
4.12527502,-69.50591000
4.12783502,-69.50591000
4.13039502,-69.50591000
4.13295502,-69.50591000
4.13551502,-69.50591000
4.13807502,-69.50591000
4.14063502,-69.50591000
4.14319502,-69.50591000
4.14575502,-69.50591000
4.14831502,-69.50591000
4.15087502,-69.50591000
4.15343502,-69.50591000
4.15599502,-69.50591000
4.15855502,-69.50591000
4.16111502,-69.50591000
4.16367502,-69.50591000
4.16623502,-69.50591000
4.16879502,-69.50591000
4.17135502,-69.50591000
4.17391502,-69.50591000
4.17647502,-69.50591000
4.17903502,-69.50591000
4.18159502,-69.50591000
4.18415502,-69.50591000
4.18671502,-69.50591000
4.18927502,-69.50591000
4.19183502,-69.50591000
4.19439502,-69.50591000
4.19695502,-69.50591000
4.19951502,-69.50591000
4.20207502,-69.50591000
4.20463502,-69.50591000
4.20719502,-69.50591000
4.20975502,-69.50591000
4.21231502,-69.50591000
4.21487502,-69.50591000
4.21743502,-69.50591000
4.21999502,-69.50591000
4.22255502,-69.50591000
4.22511502,-69.50591000
4.22767502,-69.50591000
4.23023502,-69.50591000
4.23279502,-69.50591000
4.23535502,-69.50591000
4.23791502,-69.50591000
4.24047502,-69.50591000
4.24303502,-69.50591000
4.24559502,-69.50591000
4.24815502,-69.50591000
4.25071502,-73.99212000
4.25327502,-69.50591000
4.25583502,-69.50591000
4.25839502,-69.50591000
4.26095502,-69.50591000
4.26351502,-69.50591000
4.26607502,-69.50591000
4.26863502,-69.50591000
4.27119502,-69.50591000
4.27375502,-69.50591000
4.27631502,-69.50591000
4.27887502,-69.50591000
4.28143502,-69.50591000
4.28399502,-69.50591000
4.28655502,-69.50591000
4.28911502,-69.50591000
4.29167502,-69.50591000
4.29423502,-69.50591000
4.29679502,-69.50591000
4.29935502,-69.50591000
4.30191502,-69.50591000
4.30447502,-69.50591000
4.30703502,-69.50591000
4.30959502,-69.50591000
4.31215502,-69.50591000
4.31471502,-69.50591000
4.31727502,-69.50591000
4.31983502,-69.50591000
4.32239502,-69.50591000
4.32495502,-69.50591000
4.32751502,-69.50591000
4.33007502,-69.50591000
4.33263502,-69.50591000
4.33519502,-69.50591000
4.33775502,-69.50591000
4.34031502,-69.50591000
4.34287502,-69.50591000
4.34543502,-69.50591000
4.34799502,-69.50591000
4.35055502,-69.50591000
4.35311502,-69.50591000
4.35567502,-69.50591000
4.35823502,-69.50591000
4.36079502,-69.50591000
4.36335502,-69.50591000
4.36591502,-69.50591000
4.36847502,-69.50591000
4.37103502,-69.50591000
4.37359502,-69.50591000
4.37615502,-69.50591000
4.37871502,-69.50591000
4.38127502,-69.50591000
4.38383502,-69.50591000
4.38639502,-69.50591000
4.38895502,-69.50591000
4.39151502,-69.50591000
4.39407502,-69.50591000
4.39663502,-69.50591000
4.39919502,-69.50591000
4.40175502,-69.50591000
4.40431502,-69.50591000
4.40687502,-69.50591000
4.40943502,-69.50591000
4.41199502,-69.50591000
4.41455502,-69.50591000
4.41711502,-69.50591000
4.41967502,-69.50591000
4.42223502,-69.50591000
4.42479502,-69.50591000
4.42735502,-69.50591000
4.42991502,-69.50591000
4.43247502,-69.50591000
4.43503502,-69.50591000
4.43759502,-69.50591000
4.44015502,-69.50591000
4.44271502,-69.50591000
4.44527502,-69.50591000
4.44783502,-69.50591000
4.45039502,-69.50591000
4.45295502,-69.50591000
4.45551502,-69.50591000
4.45807502,-69.50591000
4.46063502,-69.50591000
4.46319502,-69.50591000
4.46575502,-69.50591000
4.46831502,-69.50591000
4.47087502,-69.50591000
4.47343502,-69.50591000
4.47599502,-69.50591000
4.47855502,-69.50591000
4.48111502,-69.50591000
4.48367502,-69.50591000
4.48623502,-69.50591000
4.48879502,-69.50591000
4.49135502,-69.50591000
4.49391502,-69.50591000
4.49647502,-69.50591000
4.49903502,-69.50591000
4.50159502,-69.50591000
4.50415502,-69.50591000
4.50671502,-69.50591000
4.50927502,-69.50591000
4.51183502,-69.50591000
4.51439502,-69.50591000
4.51695502,-69.50591000
4.51951502,-69.50591000
4.52207502,-69.50591000
4.52463502,-69.50591000
4.52719502,-69.50591000
4.52975502,-69.50591000
4.53231502,-69.50591000
4.53487502,-69.50591000
4.53743502,-69.50591000
4.53999502,-69.50591000
4.54255502,-69.50591000
4.54511502,-69.50591000
4.54767502,-69.50591000
4.55023502,-69.50591000
4.55279502,-69.50591000
4.55535502,-69.50591000
4.55791502,-69.50591000
4.56047502,-69.50591000
4.56303502,-69.50591000
4.56559502,-69.50591000
4.56815502,-69.50591000
4.57071502,-69.50591000
4.57327502,-69.50591000
4.57583502,-69.50591000
4.57839502,-69.50591000
4.58095502,-69.50591000
4.58351502,-69.50591000
4.58607502,-69.50591000
4.58863502,-69.50591000
4.59119502,-69.50591000
4.59375502,-69.50591000
4.59631502,-69.50591000
4.59887502,-69.50591000
4.60143502,-69.50591000
4.60399502,-69.50591000
4.60655502,-69.50591000
4.60911502,-69.50591000
4.61167502,-69.50591000
4.61423502,-69.50591000
4.61679502,-69.50591000
4.61935502,-69.50591000
4.62191502,-69.50591000
4.62447502,-69.50591000
4.62703502,-69.50591000
4.62959502,-69.50591000
4.63215502,-69.50591000
4.63471502,-69.50591000
4.63727502,-69.50591000
4.63983502,-69.50591000
4.64239502,-69.50591000
4.64495502,-69.50591000
4.64751502,-69.50591000
4.65007502,-69.50591000
4.65263502,-69.50591000
4.65519502,-69.50591000
4.65775502,-69.50591000
4.66031502,-69.50591000
4.66287502,-69.50591000
4.66543502,-69.50591000
4.66799502,-69.50591000
4.67055502,-69.50591000
4.67311502,-69.50591000
4.67567502,-69.50591000
4.67823502,-69.50591000
4.68079502,-69.50591000
4.68335502,-69.50591000
4.68591502,-69.50591000
4.68847502,-69.50591000
4.69103502,-69.50591000
4.69359502,-69.50591000
4.69615502,-69.50591000
4.69871502,-69.50591000
4.70127502,-69.50591000
4.70383502,-69.50591000
4.70639502,-69.50591000
4.70895502,-69.50591000
4.71151502,-69.50591000
4.71407502,-69.50591000
4.71663502,-69.50591000
4.71919502,-69.50591000
4.72175502,-69.50591000
4.72431502,-69.50591000
4.72687502,-69.50591000
4.72943502,-69.50591000
4.73199502,-69.50591000
4.73455502,-69.50591000
4.73711502,-69.50591000
4.73967502,-69.50591000
4.74223502,-69.50591000
4.74479502,-69.50591000
4.74735502,-69.50591000
4.74991502,-69.50591000
4.75247502,-69.50591000
4.75503502,-69.50591000
4.75759502,-69.50591000
4.76015502,-69.50591000
4.76271502,-69.50591000
4.76527502,-69.50591000
4.76783502,-69.50591000
4.77039502,-69.50591000
4.77295502,-69.50591000
4.77551502,-69.50591000
4.77807502,-69.50591000
4.78063502,-69.50591000
4.78319502,-69.50591000
4.78575502,-69.50591000
4.78831502,-69.50591000
4.79087502,-69.50591000
4.79343502,-69.50591000
4.79599502,-69.50591000
4.79855502,-69.50591000
4.80111502,-69.50591000
4.80367502,-69.50591000
4.80623502,-69.50591000
4.80879502,-69.50591000
4.81135502,-69.50591000
4.81391502,-69.50591000
4.81647502,-69.50591000
4.81903502,-69.50591000
4.82159502,-69.50591000
4.82415502,-69.50591000
4.82671502,-69.50591000
4.82927502,-69.50591000
4.83183502,-69.50591000
4.83439502,-69.50591000
4.83695502,-69.50591000
4.83951502,-69.50591000
4.84207502,-69.50591000
4.84463502,-69.50591000
4.84719502,-69.50591000
4.84975502,-69.50591000
4.85231502,-69.50591000
4.85487502,-69.50591000
4.85743502,-69.50591000
4.85999502,-69.50591000
4.86255502,-69.50591000
4.86511502,-69.50591000
4.86767502,-69.50591000
4.87023502,-69.50591000
4.87279502,-69.50591000
4.87535502,-69.50591000
4.87791502,-69.50591000
4.88047502,-69.50591000
4.88303502,-69.50591000
4.88559502,-69.50591000
4.88815502,-69.50591000
4.89071502,-69.50591000
4.89327502,-69.50591000
4.89583502,-69.50591000
4.89839502,-69.50591000
4.90095502,-69.50591000
4.90351502,-69.50591000
4.90607502,-69.50591000
4.90863501,-69.50591000
4.91119501,-69.50591000
4.91375501,-69.50591000
4.91631501,-69.50591000
4.91887501,-69.50591000
4.92143501,-69.50591000
4.92399501,-69.50591000
4.92655501,-73.99212000
4.92911501,-69.50591000
4.93167501,-69.50591000
4.93423501,-69.50591000
4.93679501,-69.50591000
4.93935501,-69.50591000
4.94191501,-69.50591000
4.94447501,-69.50591000
4.94703501,-69.50591000
4.94959501,-69.50591000
4.95215501,-73.99212000
4.95471501,-69.50591000
4.95727501,-69.50591000
4.95983501,-69.50591000
4.96239501,-73.99212000
4.96495501,-73.99212000
4.96751501,-69.50591000
4.97007501,-73.99212000
4.97263501,-69.50591000
4.97519501,-73.99212000
4.97775501,-73.99212000
4.98031501,-69.50591000
4.98287501,-69.50591000
4.98543501,-73.99212000
4.98799501,-73.99212000
4.99055501,-69.50591000
4.99311501,-73.99212000
4.99567501,-69.50591000
4.99823501,-73.99212000
5.00079501,-69.50591000
5.00335501,-73.99212000
5.00591501,-69.50591000
5.00847501,-73.99212000
5.01103501,-69.50591000
5.01359501,-69.50591000
5.01615501,-69.50591000
5.01871501,-69.50591000
5.02127501,-69.50591000
5.02383501,-69.50591000
5.02639501,-69.50591000
5.02895501,-73.99212000
5.03151501,-73.99212000
5.03407501,-69.50591000
5.03663501,-69.50591000
5.03919501,-73.99212000
5.04175501,-73.99212000
5.04431501,-69.50591000
5.04687501,-73.99212000
5.04943501,-73.99212000
5.05199501,-73.99212000
5.05455501,-73.99212000
5.05711501,-69.50591000
5.05967501,-69.50591000
5.06223501,-69.50591000
5.06479501,-73.99212000
5.06735501,-69.50591000
5.06991501,-73.99212000
5.07247501,-69.50591000
5.07503501,-69.50591000
5.07759501,-69.50591000
5.08015501,-69.50591000
5.08271501,-69.50591000
5.08527501,-73.99212000
5.08783501,-69.50591000
5.09039501,-73.99212000
5.09295501,-73.99212000
5.09551501,-73.99212000
5.09807501,-73.99212000
5.10063501,-73.99212000
5.10319501,-69.50591000
5.10575501,-73.99212000
5.10831501,-73.99212000
5.11087501,-69.50591000
5.11343501,-69.50591000
5.11599501,-69.50591000
5.11855501,-69.50591000
5.12111501,-69.50591000
5.12367501,-69.50591000
5.12623501,-73.99212000
5.12879501,-73.99212000
5.13135501,-69.50591000
5.13391501,-73.99212000
5.13647501,-73.99212000
5.13903501,-69.50591000
5.14159501,-69.50591000
5.14415501,-69.50591000
5.14671501,-73.99212000
5.14927501,-69.50591000
5.15183501,-69.50591000
5.15439501,-73.99212000
5.15695501,-73.99212000
5.15951501,-73.99212000
5.16207501,-69.50591000
5.16463501,-73.99212000
5.16719501,-69.50591000
5.16975501,-73.99212000
5.17231501,-73.99212000
5.17487501,-73.99212000
5.17743501,-69.50591000
5.17999501,-73.99212000
5.18255501,-69.50591000
5.18511501,-73.99212000
5.18767501,-73.99212000
5.19023501,-73.99212000
5.19279501,-69.50591000
5.19535501,-69.50591000
5.19791501,-73.99212000
5.20047501,-69.50591000
5.20303501,-73.99212000
5.20559501,-78.46308000
5.20815501,-73.99212000
5.21071501,-73.99212000
5.21327501,-73.99212000
5.21583501,-73.99212000
5.21839501,-73.99212000
5.22095501,-73.99212000
5.22351501,-73.99212000
5.22607501,-69.50591000
5.22863501,-73.99212000
5.23119501,-73.99212000
5.23375501,-73.99212000
5.23631501,-73.99212000
5.23887501,-73.99212000
5.24143501,-73.99212000
5.24399501,-73.99212000
5.24655501,-73.99212000
5.24911501,-73.99212000
5.25167501,-73.99212000
5.25423501,-73.99212000
5.25679501,-73.99212000
5.25935501,-73.99212000
5.26191501,-73.99212000
5.26447501,-73.99212000
5.26703501,-78.46308000
5.26959501,-73.99212000
5.27215501,-73.99212000
5.27471501,-73.99212000
5.27727501,-73.99212000
5.27983501,-73.99212000
5.28239501,-73.99212000
5.28495501,-73.99212000
5.28751501,-73.99212000
5.29007501,-73.99212000
5.29263501,-69.50591000
5.29519501,-73.99212000
5.29775501,-73.99212000
5.30031501,-73.99212000
5.30287501,-73.99212000
5.30543501,-69.50591000
5.30799501,-78.46308000
5.31055501,-73.99212000
5.31311501,-73.99212000
5.31567501,-73.99212000
5.31823501,-73.99212000
5.32079501,-73.99212000
5.32335501,-73.99212000
5.32591501,-78.46308000
5.32847501,-73.99212000
5.33103501,-73.99212000
5.33359501,-73.99212000
5.33615501,-73.99212000
5.33871501,-73.99212000
5.34127501,-73.99212000
5.34383501,-69.50591000
5.34639501,-73.99212000
5.34895501,-73.99212000
5.35151501,-73.99212000
5.35407501,-73.99212000
5.35663501,-69.50591000
5.35919501,-69.50591000
5.36175501,-69.50591000
5.36431501,-69.50591000
5.36687501,-73.99212000
5.36943501,-73.99212000
5.37199501,-69.50591000
5.37455501,-73.99212000
5.37711501,-73.99212000
5.37967501,-69.50591000
5.38223501,-73.99212000
5.38479501,-69.50591000
5.38735501,-69.50591000
5.38991501,-73.99212000
5.39247501,-69.50591000
5.39503501,-73.99212000
5.39759501,-73.99212000
5.40015501,-69.50591000
5.40271501,-73.99212000
5.40527501,-73.99212000
5.40783501,-73.99212000
5.41039501,-73.99212000
5.41295501,-73.99212000
5.41551501,-73.99212000
5.41807501,-73.99212000
5.42063501,-69.50591000
5.42319501,-73.99212000
5.42575501,-73.99212000
5.42831501,-73.99212000
5.43087501,-73.99212000
5.43343501,-73.99212000
5.43599501,-69.50591000
5.43855501,-73.99212000
5.44111501,-73.99212000
5.44367501,-73.99212000
5.44623501,-73.99212000
5.44879501,-73.99212000
5.45135501,-73.99212000
5.45391501,-69.50591000
5.45647501,-73.99212000
5.45903501,-73.99212000
5.46159501,-73.99212000
5.46415501,-73.99212000
5.46671501,-73.99212000
5.46927501,-73.99212000
5.47183501,-69.50591000
5.47439501,-73.99212000
5.47695501,-73.99212000
5.47951501,-73.99212000
5.48207501,-69.50591000
5.48463501,-73.99212000
5.48719501,-73.99212000
5.48975501,-73.99212000
5.49231501,-73.99212000
5.49487501,-73.99212000
5.49743501,-73.99212000
5.49999501,-78.46308000
5.50255501,-73.99212000
5.50511501,-73.99212000
5.50767501,-73.99212000
5.51023501,-73.99212000
5.51279501,-73.99212000
5.51535501,-73.99212000
5.51791501,-73.99212000
5.52047501,-73.99212000
5.52303501,-73.99212000
5.52559501,-73.99212000
5.52815501,-73.99212000
5.53071501,-69.50591000
5.53327501,-78.46308000
5.53583501,-73.99212000
5.53839501,-73.99212000
5.54095501,-73.99212000
5.54351501,-73.99212000
5.54607501,-73.99212000
5.54863501,-78.46308000
5.55119501,-73.99212000
5.55375501,-73.99212000
5.55631501,-73.99212000
5.55887501,-73.99212000
5.56143501,-73.99212000
5.56399501,-73.99212000
5.56655501,-73.99212000
5.56911501,-73.99212000
5.57167501,-69.50591000
5.57423501,-73.99212000
5.57679501,-73.99212000
5.57935501,-73.99212000
5.58191501,-73.99212000
5.58447501,-73.99212000
5.58703501,-73.99212000
5.58959501,-73.99212000
5.59215501,-73.99212000
5.59471501,-73.99212000
5.59727501,-73.99212000
5.59983501,-78.46308000
5.60239501,-73.99212000
5.60495501,-73.99212000
5.60751501,-73.99212000
5.61007501,-78.46308000
5.61263501,-78.46308000
5.61519501,-78.46308000
5.61775501,-73.99212000
5.62031501,-73.99212000
5.62287501,-78.46308000
5.62543501,-78.46308000
5.62799501,-78.46308000
5.63055501,-78.46308000
5.63311501,-73.99212000
5.63567501,-78.46308000
5.63823501,-73.99212000
5.64079501,-78.46308000
5.64335501,-73.99212000
5.64591501,-78.46308000
5.64847501,-78.46308000
5.65103501,-78.46308000
5.65359501,-78.46308000
5.65615501,-78.46308000
5.65871501,-78.46308000
5.66127501,-78.46308000
5.66383501,-78.46308000
5.66639501,-78.46308000
5.66895501,-78.46308000
5.67151501,-78.46308000
5.67407501,-78.46308000
5.67663501,-78.46308000
5.67919501,-78.46308000
5.68175501,-78.46308000
5.68431501,-78.46308000
5.68687501,-78.46308000
5.68943501,-78.46308000
5.69199501,-78.46308000
5.69455501,-73.99212000
5.69711501,-78.46308000
5.69967501,-78.46308000
5.70223501,-78.46308000
5.70479501,-78.46308000
5.70735501,-78.46308000
5.70991501,-78.46308000
5.71247501,-78.46308000
5.71503501,-78.46308000
5.71759501,-78.46308000
5.72015501,-78.46308000
5.72271501,-78.46308000
5.72527501,-78.46308000
5.72783501,-78.46308000
5.73039501,-78.46308000
5.73295501,-78.46308000
5.73551501,-78.46308000
5.73807501,-73.99212000
5.74063501,-73.99212000
5.74319501,-78.46308000
5.74575501,-78.46308000
5.74831501,-78.46308000
5.75087501,-78.46308000
5.75343501,-78.46308000
5.75599501,-73.99212000
5.75855501,-78.46308000
5.76111501,-78.46308000
5.76367501,-73.99212000
5.76623501,-73.99212000
5.76879501,-78.46308000
5.77135501,-73.99212000
5.77391501,-78.46308000
5.77647501,-73.99212000
5.77903501,-73.99212000
5.78159501,-73.99212000
5.78415501,-73.99212000
5.78671501,-73.99212000
5.78927501,-73.99212000
5.79183501,-73.99212000
5.79439501,-73.99212000
5.79695501,-73.99212000
5.79951501,-73.99212000
5.80207501,-73.99212000
5.80463501,-73.99212000
5.80719501,-73.99212000
5.80975501,-73.99212000
5.81231501,-73.99212000
5.81487501,-73.99212000
5.81743501,-69.50591000
5.81999501,-73.99212000
5.82255501,-73.99212000
5.82511501,-69.50591000
5.82767501,-73.99212000
5.83023501,-69.50591000
5.83279501,-73.99212000
5.83535501,-73.99212000
5.83791501,-73.99212000
5.84047501,-69.50591000
5.84303501,-69.50591000
5.84559501,-73.99212000
5.84815501,-69.50591000
5.85071501,-69.50591000
5.85327501,-69.50591000
5.85583501,-69.50591000
5.85839501,-69.50591000
5.86095501,-69.50591000
5.86351501,-69.50591000
5.86607501,-69.50591000
5.86863501,-69.50591000
5.87119501,-69.50591000
5.87375501,-69.50591000
5.87631501,-69.50591000
5.87887501,-69.50591000
5.88143501,-69.50591000
5.88399501,-69.50591000
5.88655501,-69.50591000
5.88911501,-69.50591000
5.89167501,-69.50591000
5.89423501,-69.50591000
5.89679501,-69.50591000
5.89935501,-69.50591000
5.90191501,-69.50591000
5.90447501,-69.50591000
5.90703501,-69.50591000
5.90959501,-69.50591000
5.91215501,-69.50591000
5.91471501,-69.50591000
5.91727501,-69.50591000
5.91983501,-69.50591000
5.92239501,-69.50591000
5.92495501,-69.50591000
5.92751501,-69.50591000
5.93007501,-69.50591000
5.93263501,-69.50591000
5.93519501,-69.50591000
5.93775501,-69.50591000
5.94031501,-69.50591000
5.94287501,-69.50591000
5.94543501,-69.50591000
5.94799501,-69.50591000
5.95055501,-69.50591000
5.95311501,-69.50591000
5.95567501,-69.50591000
5.95823501,-69.50591000
5.96079501,-69.50591000
5.96335501,-69.50591000
5.96591501,-69.50591000
5.96847501,-69.50591000
5.97103501,-69.50591000
5.97359501,-69.50591000
5.97615501,-69.50591000
5.97871501,-69.50591000
5.98127501,-69.50591000
5.98383501,-69.50591000
5.98639501,-69.50591000
5.98895501,-69.50591000
5.99151501,-69.50591000
5.99407501,-69.50591000
5.99663501,-69.50591000
5.99919501,-69.50591000
6.00175501,-69.50591000
6.00431501,-69.50591000
6.00687501,-69.50591000
6.00943501,-69.50591000
6.01199501,-69.50591000
6.01455501,-69.50591000
6.01711501,-73.99212000
6.01967501,-69.50591000
6.02223501,-69.50591000
6.02479501,-73.99212000
6.02735501,-69.50591000
6.02991501,-73.99212000
6.03247501,-73.99212000
6.03503501,-73.99212000
6.03759501,-69.50591000
6.04015501,-69.50591000
6.04271501,-73.99212000
6.04527501,-73.99212000
6.04783501,-73.99212000
6.05039501,-69.50591000
6.05295501,-69.50591000
6.05551501,-73.99212000
6.05807501,-73.99212000
6.06063501,-73.99212000
6.06319501,-69.50591000
6.06575501,-73.99212000
6.06831501,-69.50591000
6.07087501,-73.99212000
6.07343501,-73.99212000
6.07599501,-73.99212000
6.07855501,-73.99212000
6.08111501,-73.99212000
6.08367501,-73.99212000
6.08623501,-69.50591000
6.08879501,-73.99212000
6.09135501,-73.99212000
6.09391501,-69.50591000
6.09647501,-73.99212000
6.09903501,-73.99212000
6.10159501,-73.99212000
6.10415501,-73.99212000
6.10671501,-73.99212000
6.10927501,-73.99212000
6.11183501,-69.50591000
6.11439501,-73.99212000
6.11695501,-73.99212000
6.11951501,-73.99212000
6.12207501,-73.99212000
6.12463501,-73.99212000
6.12719501,-69.50591000
6.12975501,-73.99212000
6.13231501,-73.99212000
6.13487501,-73.99212000
6.13743501,-73.99212000
6.13999501,-73.99212000
6.14255501,-73.99212000
6.14511501,-73.99212000
6.14767501,-78.46308000
6.15023501,-73.99212000
6.15279501,-73.99212000
6.15535501,-78.46308000
6.15791501,-73.99212000
6.16047501,-73.99212000
6.16303501,-73.99212000
6.16559501,-73.99212000
6.16815501,-73.99212000
6.17071501,-73.99212000
6.17327501,-73.99212000
6.17583501,-73.99212000
6.17839501,-73.99212000
6.18095501,-73.99212000
6.18351501,-78.46308000
6.18607501,-73.99212000
6.18863501,-73.99212000
6.19119501,-73.99212000
6.19375501,-73.99212000
6.19631501,-73.99212000
6.19887501,-73.99212000
6.20143501,-73.99212000
6.20399501,-73.99212000
6.20655501,-73.99212000
6.20911501,-73.99212000
6.21167501,-73.99212000
6.21423501,-78.46308000
6.21679501,-78.46308000
6.21935501,-73.99212000
6.22191501,-73.99212000
6.22447501,-73.99212000
6.22703501,-73.99212000
6.22959501,-73.99212000
6.23215501,-73.99212000
6.23471501,-73.99212000
6.23727501,-69.50591000
6.23983501,-73.99212000
6.24239501,-69.50591000
6.24495501,-73.99212000
6.24751501,-73.99212000
6.25007501,-73.99212000
6.25263501,-73.99212000
6.25519501,-69.50591000
6.25775501,-73.99212000
6.26031501,-78.46308000
6.26287501,-73.99212000
6.26543501,-73.99212000
6.26799501,-73.99212000
6.27055501,-69.50591000
6.27311501,-69.50591000
6.27567501,-73.99212000
6.27823501,-69.50591000
6.28079501,-73.99212000
6.28335501,-73.99212000
6.28591501,-78.46308000
6.28847501,-69.50591000
6.29103501,-73.99212000
6.29359501,-73.99212000
6.29615501,-73.99212000
6.29871501,-73.99212000
6.30127501,-73.99212000
6.30383501,-73.99212000
6.30639501,-73.99212000
6.30895501,-73.99212000
6.31151501,-73.99212000
6.31407501,-73.99212000
6.31663501,-73.99212000
6.31919501,-73.99212000
6.32175501,-78.46308000
6.32431501,-73.99212000
6.32687501,-73.99212000
6.32943501,-73.99212000
6.33199501,-73.99212000
6.33455501,-73.99212000
6.33711501,-69.50591000
6.33967501,-73.99212000
6.34223501,-69.50591000
6.34479501,-73.99212000
6.34735501,-73.99212000
6.34991501,-73.99212000
6.35247501,-73.99212000
6.35503501,-69.50591000
6.35759501,-73.99212000
6.36015501,-73.99212000
6.36271501,-73.99212000
6.36527501,-69.50591000
6.36783501,-69.50591000
6.37039501,-69.50591000
6.37295501,-69.50591000
6.37551501,-69.50591000
6.37807501,-69.50591000
6.38063501,-73.99212000
6.38319501,-73.99212000
6.38575501,-73.99212000
6.38831501,-69.50591000
6.39087501,-73.99212000
6.39343501,-69.50591000
6.39599501,-69.50591000
6.39855501,-73.99212000
6.40111501,-69.50591000
6.40367501,-69.50591000
6.40623501,-73.99212000
6.40879501,-73.99212000
6.41135501,-69.50591000
6.41391501,-69.50591000
6.41647501,-73.99212000
6.41903501,-69.50591000
6.42159501,-69.50591000
6.42415501,-73.99212000
6.42671501,-73.99212000
6.42927501,-69.50591000
6.43183501,-69.50591000
6.43439501,-69.50591000
6.43695501,-73.99212000
6.43951501,-73.99212000
6.44207501,-73.99212000
6.44463501,-69.50591000
6.44719501,-69.50591000
6.44975501,-69.50591000
6.45231501,-69.50591000
6.45487501,-73.99212000
6.45743501,-69.50591000
6.45999501,-69.50591000
6.46255501,-69.50591000
6.46511501,-69.50591000
6.46767501,-69.50591000
6.47023501,-69.50591000
6.47279501,-69.50591000
6.47535501,-69.50591000
6.47791501,-73.99212000
6.48047501,-69.50591000
6.48303501,-69.50591000
6.48559501,-69.50591000
6.48815501,-69.50591000
6.49071501,-69.50591000
6.49327501,-73.99212000
6.49583501,-69.50591000
6.49839501,-69.50591000
6.50095501,-69.50591000
6.50351501,-69.50591000
6.50607501,-69.50591000
6.50863501,-69.50591000
6.51119501,-69.50591000
6.51375501,-69.50591000
6.51631501,-69.50591000
6.51887501,-69.50591000
6.52143501,-69.50591000
6.52399501,-69.50591000
6.52655501,-69.50591000
6.52911501,-69.50591000
6.53167501,-69.50591000
6.53423501,-69.50591000
6.53679501,-69.50591000
6.53935501,-69.50591000
6.54191501,-69.50591000
6.54447501,-73.99212000
6.54703501,-69.50591000
6.54959501,-73.99212000
6.55215501,-69.50591000
6.55471500,-69.50591000
6.55727500,-69.50591000
6.55983500,-69.50591000
6.56239500,-69.50591000
6.56495500,-69.50591000
6.56751500,-69.50591000
6.57007500,-69.50591000
6.57263500,-69.50591000
6.57519500,-69.50591000
6.57775500,-69.50591000
6.58031500,-69.50591000
6.58287500,-69.50591000
6.58543500,-69.50591000
6.58799500,-69.50591000
6.59055500,-69.50591000
6.59311500,-69.50591000
6.59567500,-69.50591000
6.59823500,-69.50591000
6.60079500,-69.50591000
6.60335500,-73.99212000
6.60591500,-69.50591000
6.60847500,-69.50591000
6.61103500,-69.50591000
6.61359500,-69.50591000
6.61615500,-69.50591000
6.61871500,-69.50591000
6.62127500,-69.50591000
6.62383500,-69.50591000
6.62639500,-69.50591000
6.62895500,-69.50591000
6.63151500,-69.50591000
6.63407500,-69.50591000
6.63663500,-69.50591000
6.63919500,-69.50591000
6.64175500,-69.50591000
6.64431500,-69.50591000
6.64687500,-69.50591000
6.64943500,-69.50591000
6.65199500,-69.50591000
6.65455500,-69.50591000
6.65711500,-69.50591000
6.65967500,-69.50591000
6.66223500,-69.50591000
6.66479500,-69.50591000
6.66735500,-69.50591000
6.66991500,-69.50591000
6.67247500,-69.50591000
6.67503500,-69.50591000
6.67759500,-69.50591000
6.68015500,-69.50591000
6.68271500,-69.50591000
6.68527500,-69.50591000
6.68783500,-69.50591000
6.69039500,-69.50591000
6.69295500,-69.50591000
6.69551500,-69.50591000
6.69807500,-69.50591000
6.70063500,-73.99212000
6.70319500,-69.50591000
6.70575500,-73.99212000
6.70831500,-69.50591000
6.71087500,-69.50591000
6.71343500,-69.50591000
6.71599500,-69.50591000
6.71855500,-69.50591000
6.72111500,-69.50591000
6.72367500,-73.99212000
6.72623500,-69.50591000
6.72879500,-69.50591000
6.73135500,-69.50591000
6.73391500,-73.99212000
6.73647500,-69.50591000
6.73903500,-73.99212000
6.74159500,-73.99212000
6.74415500,-73.99212000
6.74671500,-69.50591000
6.74927500,-73.99212000
6.75183500,-73.99212000
6.75439500,-73.99212000
6.75695500,-73.99212000
6.75951500,-73.99212000
6.76207500,-73.99212000
6.76463500,-73.99212000
6.76719500,-73.99212000
6.76975500,-73.99212000
6.77231500,-78.46308000
6.77487500,-73.99212000
6.77743500,-73.99212000
6.77999500,-73.99212000
6.78255500,-73.99212000
6.78511500,-78.46308000
6.78767500,-78.46308000
6.79023500,-78.46308000
6.79279500,-78.46308000
6.79535500,-78.46308000
6.79791500,-78.46308000
6.80047500,-78.46308000
6.80303500,-78.46308000
6.80559500,-78.46308000
6.80815500,-78.46308000
6.81071500,-78.46308000
6.81327500,-78.46308000
6.81583500,-78.46308000
6.81839500,-78.46308000
6.82095500,-78.46308000
6.82351500,-78.46308000
6.82607500,-78.46308000
6.82863500,-82.93404000
6.83119500,-82.93404000
6.83375500,-82.93404000
6.83631500,-82.93404000
6.83887500,-82.93404000
6.84143500,-78.46308000
6.84399500,-82.93404000
6.84655500,-82.93404000
6.84911500,-82.93404000
6.85167500,-82.93404000
6.85423500,-82.93404000
6.85679500,-82.93404000
6.85935500,-82.93404000
6.86191500,-82.93404000
6.86447500,-87.40501000
6.86703500,-87.40501000
6.86959500,-87.40501000
6.87215500,-87.40501000
6.87471500,-87.40501000
6.87727500,-87.40501000
6.87983500,-87.40501000
6.88239500,-87.40501000
6.88495500,-87.40501000
6.88751500,-87.40501000
6.89007500,-87.40501000
6.89263500,-87.40501000
6.89519500,-87.40501000
6.89775500,-91.87596000
6.90031500,-87.40501000
6.90287500,-91.87596000
6.90543500,-91.87596000
6.90799500,-91.87596000
6.91055500,-91.87596000
6.91311500,-91.87596000
6.91567500,-96.34693000
6.91823500,-96.34693000
6.92079500,-96.34693000
6.92335500,-96.34693000
6.92591500,-96.34693000
6.92847500,-96.34693000
6.93103500,-96.34693000
6.93359500,-96.34693000
6.93615500,-96.34693000
6.93871500,-96.34693000
6.94127500,-96.34693000
6.94383500,-96.34693000
6.94639500,-96.34693000
6.94895500,-100.81790000
6.95151500,-100.81790000
6.95407500,-100.81790000
6.95663500,-100.81790000
6.95919500,-100.81790000
6.96175500,-100.81790000
6.96431500,-100.81790000
6.96687500,-100.81790000
6.96943500,-100.81790000
6.97199500,-105.28880000
6.97455500,-105.28880000
6.97711500,-105.28880000
6.97967500,-105.28880000
6.98223500,-105.28880000
6.98479500,-105.28880000
6.98735500,-105.28880000
6.98991500,-105.28880000
6.99247500,-105.28880000
6.99503500,-105.28880000
6.99759500,-105.28880000
7.00015500,-105.28880000
7.00271500,-105.28880000
7.00527500,-105.28880000
7.00783500,-109.75980000
7.01039500,-105.28880000
7.01295500,-109.75980000
7.01551500,-109.75980000
7.01807500,-109.75980000
7.02063500,-109.75980000
7.02319500,-114.23080000
7.02575500,-109.75980000
7.02831500,-114.23080000
7.03087500,-114.23080000
7.03343500,-114.23080000
7.03599500,-114.23080000
7.03855500,-114.23080000
7.04111500,-114.23080000
7.04367500,-114.23080000
7.04623500,-114.23080000
7.04879500,-114.23080000
7.05135500,-114.23080000
7.05391500,-114.23080000
7.05647500,-114.23080000
7.05903500,-114.23080000
7.06159500,-114.23080000
7.06415500,-118.70170000
7.06671500,-114.23080000
7.06927500,-114.23080000
7.07183500,-118.70170000
7.07439500,-118.70170000
7.07695500,-118.70170000
7.07951500,-118.70170000
7.08207500,-118.70170000
7.08463500,-118.70170000
7.08719500,-118.70170000
7.08975500,-118.70170000
7.09231500,-118.70170000
7.09487500,-118.70170000
7.09743500,-118.70170000
7.09999500,-118.70170000
7.10255500,-118.70170000
7.10511500,-123.17270000
7.10767500,-118.70170000
7.11023500,-118.70170000
7.11279500,-118.70170000
7.11535500,-118.70170000
7.11791500,-123.17270000
7.12047500,-123.17270000
7.12303500,-118.70170000
7.12559500,-123.17270000
7.12815500,-123.17270000
7.13071500,-123.17270000
7.13327500,-123.17270000
7.13583500,-123.17270000
7.13839500,-123.17270000
7.14095500,-123.17270000
7.14351500,-123.17270000
7.14607500,-123.17270000
7.14863500,-123.17270000
7.15119500,-123.17270000
7.15375500,-123.17270000
7.15631500,-123.17270000
7.15887500,-123.17270000
7.16143500,-123.17270000
7.16399500,-123.17270000
7.16655500,-123.17270000
7.16911500,-123.17270000
7.17167500,-123.17270000
7.17423500,-123.17270000
7.17679500,-123.17270000
7.17935500,-123.17270000
7.18191500,-123.17270000
7.18447500,-123.17270000
7.18703500,-123.17270000
7.18959500,-123.17270000
7.19215500,-123.17270000
7.19471500,-123.17270000
7.19727500,-123.17270000
7.19983500,-123.17270000
7.20239500,-118.70170000
7.20495500,-123.17270000
7.20751500,-123.17270000
7.21007500,-123.17270000
7.21263500,-123.17270000
7.21519500,-123.17270000
7.21775500,-123.17270000
7.22031500,-123.17270000
7.22287500,-123.17270000
7.22543500,-123.17270000
7.22799500,-123.17270000
7.23055500,-123.17270000
7.23311500,-123.17270000
7.23567500,-123.17270000
7.23823500,-123.17270000
7.24079500,-123.17270000
7.24335500,-123.17270000
7.24591500,-123.17270000
7.24847500,-123.17270000
7.25103500,-118.70170000
7.25359500,-118.70170000
7.25615500,-118.70170000
7.25871500,-118.70170000
7.26127500,-118.70170000
7.26383500,-118.70170000
7.26639500,-118.70170000
7.26895500,-118.70170000
7.27151500,-118.70170000
7.27407500,-118.70170000
7.27663500,-118.70170000
7.27919500,-118.70170000
7.28175500,-114.23080000
7.28431500,-114.23080000
7.28687500,-118.70170000
7.28943500,-114.23080000
7.29199500,-114.23080000
7.29455500,-114.23080000
7.29711500,-114.23080000
7.29967500,-114.23080000
7.30223500,-114.23080000
7.30479500,-114.23080000
7.30735500,-114.23080000
7.30991500,-114.23080000
7.31247500,-114.23080000
7.31503500,-114.23080000
7.31759500,-114.23080000
7.32015500,-114.23080000
7.32271500,-114.23080000
7.32527500,-114.23080000
7.32783500,-114.23080000
7.33039500,-114.23080000
7.33295500,-114.23080000
7.33551500,-114.23080000
7.33807500,-114.23080000
7.34063500,-109.75980000
7.34319500,-109.75980000
7.34575500,-109.75980000
7.34831500,-114.23080000
7.35087500,-109.75980000
7.35343500,-105.28880000
7.35599500,-109.75980000
7.35855500,-109.75980000
7.36111500,-109.75980000
7.36367500,-109.75980000
7.36623500,-105.28880000
7.36879500,-105.28880000
7.37135500,-105.28880000
7.37391500,-105.28880000
7.37647500,-105.28880000
7.37903500,-105.28880000
7.38159500,-105.28880000
7.38415500,-105.28880000
7.38671500,-105.28880000
7.38927500,-105.28880000
7.39183500,-105.28880000
7.39439500,-105.28880000
7.39695500,-105.28880000
7.39951500,-105.28880000
7.40207500,-105.28880000
7.40463500,-105.28880000
7.40719500,-105.28880000
7.40975500,-105.28880000
7.41231500,-105.28880000
7.41487500,-100.81790000
7.41743500,-100.81790000
7.41999500,-100.81790000
7.42255500,-100.81790000
7.42511500,-100.81790000
7.42767500,-100.81790000
7.43023500,-100.81790000
7.43279500,-100.81790000
7.43535500,-100.81790000
7.43791500,-96.34693000
7.44047500,-96.34693000
7.44303500,-96.34693000
7.44559500,-96.34693000
7.44815500,-96.34693000
7.45071500,-96.34693000
7.45327500,-96.34693000
7.45583500,-96.34693000
7.45839500,-96.34693000
7.46095500,-96.34693000
7.46351500,-96.34693000
7.46607500,-91.87596000
7.46863500,-96.34693000
7.47119500,-96.34693000
7.47375500,-91.87596000
7.47631500,-91.87596000
7.47887500,-91.87596000
7.48143500,-96.34693000
7.48399500,-91.87596000
7.48655500,-91.87596000
7.48911500,-91.87596000
7.49167500,-91.87596000
7.49423500,-87.40501000
7.49679500,-91.87596000
7.49935500,-91.87596000
7.50191500,-87.40501000
7.50447500,-87.40501000
7.50703500,-87.40501000
7.50959500,-87.40501000
7.51215500,-87.40501000
7.51471500,-87.40501000
7.51727500,-87.40501000
7.51983500,-87.40501000
7.52239500,-87.40501000
7.52495500,-87.40501000
7.52751500,-87.40501000
7.53007500,-87.40501000
7.53263500,-87.40501000
7.53519500,-87.40501000
7.53775500,-87.40501000
7.54031500,-87.40501000
7.54287500,-87.40501000
7.54543500,-82.93404000
7.54799500,-87.40501000
7.55055500,-82.93404000
7.55311500,-82.93404000
7.55567500,-87.40501000
7.55823500,-82.93404000
7.56079500,-82.93404000
7.56335500,-82.93404000
7.56591500,-82.93404000
7.56847500,-82.93404000
7.57103500,-82.93404000
7.57359500,-82.93404000
7.57615500,-82.93404000
7.57871500,-82.93404000
7.58127500,-78.46308000
7.58383500,-82.93404000
7.58639500,-82.93404000
7.58895500,-82.93404000
7.59151500,-78.46308000
7.59407500,-78.46308000
7.59663500,-78.46308000
7.59919500,-78.46308000
7.60175500,-78.46308000
7.60431500,-78.46308000
7.60687500,-78.46308000
7.60943500,-78.46308000
7.61199500,-78.46308000
7.61455500,-78.46308000
7.61711500,-78.46308000
7.61967500,-78.46308000
7.62223500,-78.46308000
7.62479500,-78.46308000
7.62735500,-78.46308000
7.62991500,-78.46308000
7.63247500,-78.46308000
7.63503500,-78.46308000
7.63759500,-78.46308000
7.64015500,-78.46308000
7.64271500,-78.46308000
7.64527500,-78.46308000
7.64783500,-78.46308000
7.65039500,-78.46308000
7.65295500,-78.46308000
7.65551500,-78.46308000
7.65807500,-73.99212000
7.66063500,-78.46308000
7.66319500,-78.46308000
7.66575500,-73.99212000
7.66831500,-78.46308000
7.67087500,-73.99212000
7.67343500,-78.46308000
7.67599500,-69.50591000
7.67855500,-73.99212000
7.68111500,-69.50591000
7.68367500,-73.99212000
7.68623500,-73.99212000
7.68879500,-73.99212000
7.69135500,-73.99212000
7.69391500,-69.50591000
7.69647500,-73.99212000
7.69903500,-69.50591000
7.70159500,-69.50591000
7.70415500,-73.99212000
7.70671500,-73.99212000
7.70927500,-69.50591000
7.71183500,-69.50591000
7.71439500,-69.50591000
7.71695500,-69.50591000
7.71951500,-69.50591000
7.72207500,-69.50591000
7.72463500,-69.50591000
7.72719500,-69.50591000
7.72975500,-69.50591000
7.73231500,-69.50591000
7.73487500,-69.50591000
7.73743500,-69.50591000
7.73999500,-69.50591000
7.74255500,-69.50591000
7.74511500,-73.99212000
7.74767500,-69.50591000
7.75023500,-69.50591000
7.75279500,-69.50591000
7.75535500,-69.50591000
7.75791500,-69.50591000
7.76047500,-69.50591000
7.76303500,-69.50591000
7.76559500,-69.50591000
7.76815500,-69.50591000
7.77071500,-69.50591000
7.77327500,-69.50591000
7.77583500,-69.50591000
7.77839500,-69.50591000
7.78095500,-69.50591000
7.78351500,-69.50591000
7.78607500,-69.50591000
7.78863500,-69.50591000
7.79119500,-69.50591000
7.79375500,-69.50591000
7.79631500,-69.50591000
7.79887500,-69.50591000
7.80143500,-69.50591000
7.80399500,-69.50591000
7.80655500,-69.50591000
7.80911500,-69.50591000
7.81167500,-69.50591000
7.81423500,-69.50591000
7.81679500,-69.50591000
7.81935500,-69.50591000
7.82191500,-69.50591000
7.82447500,-69.50591000
7.82703500,-69.50591000
7.82959500,-69.50591000
7.83215500,-69.50591000
7.83471500,-69.50591000
7.83727500,-69.50591000
7.83983500,-69.50591000
7.84239500,-69.50591000
7.84495500,-69.50591000
7.84751500,-69.50591000
7.85007500,-65.03493000
7.85263500,-65.03493000
7.85519500,-65.03493000
7.85775500,-65.03493000
7.86031500,-69.50591000
7.86287500,-69.50591000
7.86543500,-65.03493000
7.86799500,-65.03493000
7.87055500,-65.03493000
7.87311500,-65.03493000
7.87567500,-65.03493000
7.87823500,-65.03493000
7.88079500,-65.03493000
7.88335500,-60.56398000
7.88591500,-65.03493000
7.88847500,-60.56398000
7.89103500,-60.56398000
7.89359500,-65.03493000
7.89615500,-60.56398000
7.89871500,-60.56398000
7.90127500,-60.56398000
7.90383500,-60.56398000
7.90639500,-60.56398000
7.90895500,-60.56398000
7.91151500,-60.56398000
7.91407500,-60.56398000
7.91663500,-60.56398000
7.91919500,-60.56398000
7.92175500,-60.56398000
7.92431500,-60.56398000
7.92687500,-56.09302000
7.92943500,-60.56398000
7.93199500,-51.62206000
7.93455500,-51.62206000
7.93711500,-51.62206000
7.93967500,-51.62206000
7.94223500,-51.62206000
7.94479500,-51.62206000
7.94735500,-51.62206000
7.94991500,-51.62206000
7.95247500,-51.62206000
7.95503500,-51.62206000
7.95759500,-51.62206000
7.96015500,-51.62206000
7.96271500,-51.62206000
7.96527500,-47.15109000
7.96783500,-47.15109000
7.97039500,-51.62206000
7.97295500,-47.15109000
7.97551500,-47.15109000
7.97807500,-42.68013000
7.98063500,-42.68013000
7.98319500,-42.68013000
7.98575500,-42.68013000
7.98831500,-42.68013000
7.99087500,-42.68013000
7.99343500,-42.68013000
7.99599500,-42.68013000
7.99855500,-42.68013000
8.00111500,-38.20917000
8.00367500,-38.20917000
8.00623500,-38.20917000
8.00879500,-38.20917000
8.01135500,-33.73821000
8.01391500,-33.73821000
8.01647500,-38.20917000
8.01903500,-33.73821000
8.02159500,-33.73821000
8.02415500,-33.73821000
8.02671500,-33.73821000
8.02927500,-33.73821000
8.03183500,-33.73821000
8.03439500,-33.73821000
8.03695500,-33.73821000
8.03951500,-33.73821000
8.04207500,-33.73821000
8.04463500,-29.26725000
8.04719500,-29.26725000
8.04975500,-29.26725000
8.05231500,-29.26725000
8.05487500,-29.26725000
8.05743500,-29.26725000
8.05999500,-24.79629000
8.06255500,-24.79629000
8.06511500,-24.79629000
8.06767500,-24.79629000
8.07023500,-24.79629000
8.07279500,-24.79629000
8.07535500,-24.79629000
8.07791500,-24.79629000
8.08047500,-20.32533000
8.08303500,-20.32533000
8.08559500,-20.32533000
8.08815500,-20.32533000
8.09071500,-20.32533000
8.09327500,-20.32533000
8.09583500,-20.32533000
8.09839500,-15.85437000
8.10095500,-20.32533000
8.10351500,-20.32533000
8.10607500,-15.85437000
8.10863500,-15.85437000
8.11119500,-15.85437000
8.11375500,-15.85437000
8.11631500,-20.32533000
8.11887500,-15.85437000
8.12143500,-15.85437000
8.12399500,-15.85437000
8.12655500,-15.85437000
8.12911500,-15.85437000
8.13167500,-15.85437000
8.13423500,-15.85437000
8.13679500,-15.85437000
8.13935500,-15.85437000
8.14191500,-15.85437000
8.14447500,-15.85437000
8.14703500,-15.85437000
8.14959500,-15.85437000
8.15215500,-15.85437000
8.15471500,-15.85437000
8.15727500,-11.38340000
8.15983500,-15.85437000
8.16239500,-11.38340000
8.16495500,-15.85437000
8.16751500,-11.38340000
8.17007500,-15.85437000
8.17263500,-15.85437000
8.17519500,-11.38340000
8.17775500,-11.38340000
8.18031500,-11.38340000
8.18287500,-11.38340000
8.18543500,-11.38340000
8.18799500,-11.38340000
8.19055500,-11.38340000
8.19311500,-11.38340000
8.19567500,-11.38340000
8.19823500,-11.38340000
8.20079499,-11.38340000
8.20335499,-11.38340000
8.20591499,-11.38340000
8.20847499,-11.38340000
8.21103499,-11.38340000
8.21359499,-11.38340000
8.21615499,-11.38340000
8.21871499,-11.38340000
8.22127499,-11.38340000
8.22383499,-11.38340000
8.22639499,-11.38340000
8.22895499,-11.38340000
8.23151499,-11.38340000
8.23407499,-11.38340000
8.23663499,-11.38340000
8.23919499,-11.38340000
8.24175499,-11.38340000
8.24431499,-11.38340000
8.24687499,-11.38340000
8.24943499,-11.38340000
8.25199499,-11.38340000
8.25455499,-11.38340000
8.25711499,-11.38340000
8.25967499,-11.38340000
8.26223499,-15.85437000
8.26479499,-11.38340000
8.26735499,-15.85437000
8.26991499,-11.38340000
8.27247499,-15.85437000
8.27503499,-15.85437000
8.27759499,-15.85437000
8.28015499,-15.85437000
8.28271499,-15.85437000
8.28527499,-15.85437000
8.28783499,-15.85437000
8.29039499,-15.85437000
8.29295499,-15.85437000
8.29551499,-15.85437000
8.29807499,-15.85437000
8.30063499,-15.85437000
8.30319499,-15.85437000
8.30575499,-15.85437000
8.30831499,-15.85437000
8.31087499,-15.85437000
8.31343499,-15.85437000
8.31599499,-15.85437000
8.31855499,-15.85437000
8.32111499,-15.85437000
8.32367499,-15.85437000
8.32623499,-15.85437000
8.32879499,-15.85437000
8.33135499,-15.85437000
8.33391499,-15.85437000
8.33647499,-15.85437000
8.33903499,-15.85437000
8.34159499,-15.85437000
8.34415499,-15.85437000
8.34671499,-15.85437000
8.34927499,-20.32533000
8.35183499,-15.85437000
8.35439499,-20.32533000
8.35695499,-20.32533000
8.35951499,-20.32533000
8.36207499,-20.32533000
8.36463499,-20.32533000
8.36719499,-24.79629000
8.36975499,-20.32533000
8.37231499,-20.32533000
8.37487499,-24.79629000
8.37743499,-20.32533000
8.37999499,-24.79629000
8.38255499,-24.79629000
8.38511499,-24.79629000
8.38767499,-24.79629000
8.39023499,-24.79629000
8.39279499,-24.79629000
8.39535499,-24.79629000
8.39791499,-24.79629000
8.40047499,-24.79629000
8.40303499,-24.79629000
8.40559499,-24.79629000
8.40815499,-24.79629000
8.41071499,-24.79629000
8.41327499,-24.79629000
8.41583499,-24.79629000
8.41839499,-24.79629000
8.42095499,-24.79629000
8.42351499,-29.26725000
8.42607499,-29.26725000
8.42863499,-29.26725000
8.43119499,-29.26725000
8.43375499,-29.26725000
8.43631499,-29.26725000
8.43887499,-29.26725000
8.44143499,-29.26725000
8.44399499,-29.26725000
8.44655499,-29.26725000
8.44911499,-29.26725000
8.45167499,-33.73821000
8.45423499,-29.26725000
8.45679499,-29.26725000
8.45935499,-29.26725000
8.46191499,-29.26725000
8.46447499,-33.73821000
8.46703499,-29.26725000
8.46959499,-33.73821000
8.47215499,-29.26725000
8.47471499,-33.73821000
8.47727499,-33.73821000
8.47983499,-33.73821000
8.48239499,-33.73821000
8.48495499,-33.73821000
8.48751499,-33.73821000
8.49007499,-33.73821000
8.49263499,-33.73821000
8.49519499,-33.73821000
8.49775499,-33.73821000
8.50031499,-33.73821000
8.50287499,-33.73821000
8.50543499,-33.73821000
8.50799499,-33.73821000
8.51055499,-33.73821000
8.51311499,-33.73821000
8.51567499,-33.73821000
8.51823499,-33.73821000
8.52079499,-33.73821000
8.52335499,-38.20917000
8.52591499,-33.73821000
8.52847499,-38.20917000
8.53103499,-33.73821000
8.53359499,-38.20917000
8.53615499,-38.20917000
8.53871499,-33.73821000
8.54127499,-38.20917000
8.54383499,-38.20917000
8.54639499,-38.20917000
8.54895499,-42.68013000
8.55151499,-42.68013000
8.55407499,-42.68013000
8.55663499,-42.68013000
8.55919499,-42.68013000
8.56175499,-42.68013000
8.56431499,-42.68013000
8.56687499,-42.68013000
8.56943499,-42.68013000
8.57199499,-42.68013000
8.57455499,-42.68013000
8.57711499,-42.68013000
8.57967499,-42.68013000
8.58223499,-42.68013000
8.58479499,-42.68013000
8.58735499,-42.68013000
8.58991499,-42.68013000
8.59247499,-42.68013000
8.59503499,-47.15109000
8.59759499,-47.15109000
8.60015499,-47.15109000
8.60271499,-47.15109000
8.60527499,-47.15109000
8.60783499,-47.15109000
8.61039499,-47.15109000
8.61295499,-47.15109000
8.61551499,-47.15109000
8.61807499,-47.15109000
8.62063499,-51.62206000
8.62319499,-51.62206000
8.62575499,-51.62206000
8.62831499,-51.62206000
8.63087499,-51.62206000
8.63343499,-51.62206000
8.63599499,-51.62206000
8.63855499,-51.62206000
8.64111499,-51.62206000
8.64367499,-51.62206000
8.64623499,-51.62206000
8.64879499,-51.62206000
8.65135499,-51.62206000
8.65391499,-51.62206000
8.65647499,-51.62206000
8.65903499,-51.62206000
8.66159499,-51.62206000
8.66415499,-56.09302000
8.66671499,-51.62206000
8.66927499,-56.09302000
8.67183499,-56.09302000
8.67439499,-56.09302000
8.67695499,-56.09302000
8.67951499,-56.09302000
8.68207499,-56.09302000
8.68463499,-56.09302000
8.68719499,-60.56398000
8.68975499,-60.56398000
8.69231499,-60.56398000
8.69487499,-60.56398000
8.69743499,-60.56398000
8.69999499,-60.56398000
8.70255499,-60.56398000
8.70511499,-60.56398000
8.70767499,-60.56398000
8.71023499,-60.56398000
8.71279499,-60.56398000
8.71535499,-60.56398000
8.71791499,-60.56398000
8.72047499,-60.56398000
8.72303499,-60.56398000
8.72559499,-65.03493000
8.72815499,-65.03493000
8.73071499,-60.56398000
8.73327499,-65.03493000
8.73583499,-65.03493000
8.73839499,-60.56398000
8.74095499,-60.56398000
8.74351499,-65.03493000
8.74607499,-65.03493000
8.74863499,-65.03493000
8.75119499,-65.03493000
8.75375499,-65.03493000
8.75631499,-65.03493000
8.75887499,-65.03493000
8.76143499,-69.50591000
8.76399499,-69.50591000
8.76655499,-69.50591000
8.76911499,-69.50591000
8.77167499,-69.50591000
8.77423499,-69.50591000
8.77679499,-69.50591000
8.77935499,-69.50591000
8.78191499,-69.50591000
8.78447499,-69.50591000
8.78703499,-69.50591000
8.78959499,-69.50591000
8.79215499,-69.50591000
8.79471499,-69.50591000
8.79727499,-69.50591000
8.79983499,-73.99212000
8.80239499,-69.50591000
8.80495499,-73.99212000
8.80751499,-69.50591000
8.81007499,-73.99212000
8.81263499,-73.99212000
8.81519499,-73.99212000
8.81775499,-69.50591000
8.82031499,-73.99212000
8.82287499,-73.99212000
8.82543499,-73.99212000
8.82799499,-73.99212000
8.83055499,-73.99212000
8.83311499,-73.99212000
8.83567499,-73.99212000
8.83823499,-73.99212000
8.84079499,-78.46308000
8.84335499,-78.46308000
8.84591499,-78.46308000
8.84847499,-78.46308000
8.85103499,-78.46308000
8.85359499,-78.46308000
8.85615499,-78.46308000
8.85871499,-78.46308000
8.86127499,-78.46308000
8.86383499,-78.46308000
8.86639499,-78.46308000
8.86895499,-78.46308000
8.87151499,-78.46308000
8.87407499,-78.46308000
8.87663499,-78.46308000
8.87919499,-78.46308000
8.88175499,-78.46308000
8.88431499,-82.93404000
8.88687499,-78.46308000
8.88943499,-78.46308000
8.89199499,-78.46308000
8.89455499,-78.46308000
8.89711499,-82.93404000
8.89967499,-78.46308000
8.90223499,-78.46308000
8.90479499,-78.46308000
8.90735499,-82.93404000
8.90991499,-82.93404000
8.91247499,-82.93404000
8.91503499,-82.93404000
8.91759499,-82.93404000
8.92015499,-82.93404000
8.92271499,-82.93404000
8.92527499,-82.93404000
8.92783499,-82.93404000
8.93039499,-82.93404000
8.93295499,-82.93404000
8.93551499,-82.93404000
8.93807499,-82.93404000
8.94063499,-82.93404000
8.94319499,-82.93404000
8.94575499,-82.93404000
8.94831499,-82.93404000
8.95087499,-82.93404000
8.95343499,-82.93404000
8.95599499,-82.93404000
8.95855499,-82.93404000
8.96111499,-87.40501000
8.96367499,-82.93404000
8.96623499,-82.93404000
8.96879499,-82.93404000
8.97135499,-82.93404000
8.97391499,-82.93404000
8.97647499,-82.93404000
8.97903499,-82.93404000
8.98159499,-82.93404000
8.98415499,-82.93404000
8.98671499,-82.93404000
8.98927499,-82.93404000
8.99183499,-82.93404000
8.99439499,-87.40501000
8.99695499,-82.93404000
8.99951499,-87.40501000
9.00207499,-82.93404000
9.00463499,-82.93404000
9.00719499,-87.40501000
9.00975499,-82.93404000
9.01231499,-87.40501000
9.01487499,-87.40501000
9.01743499,-87.40501000
9.01999499,-87.40501000
9.02255499,-87.40501000
9.02511499,-87.40501000
9.02767499,-87.40501000
9.03023499,-87.40501000
9.03279499,-87.40501000
9.03535499,-87.40501000
9.03791499,-82.93404000
9.04047499,-87.40501000
9.04303499,-87.40501000
9.04559499,-87.40501000
9.04815499,-87.40501000
9.05071499,-87.40501000
9.05327499,-87.40501000
9.05583499,-87.40501000
9.05839499,-87.40501000
9.06095499,-87.40501000
9.06351499,-87.40501000
9.06607499,-87.40501000
9.06863499,-87.40501000
9.07119499,-87.40501000
9.07375499,-87.40501000
9.07631499,-87.40501000
9.07887499,-87.40501000
9.08143499,-87.40501000
9.08399499,-87.40501000
9.08655499,-87.40501000
9.08911499,-87.40501000
9.09167499,-87.40501000
9.09423499,-87.40501000
9.09679499,-87.40501000
9.09935499,-87.40501000
9.10191499,-87.40501000
9.10447499,-87.40501000
9.10703499,-87.40501000
9.10959499,-87.40501000
9.11215499,-87.40501000
9.11471499,-87.40501000
9.11727499,-87.40501000
9.11983499,-87.40501000
9.12239499,-87.40501000
9.12495499,-87.40501000
9.12751499,-87.40501000
9.13007499,-87.40501000
9.13263499,-87.40501000
9.13519499,-87.40501000
9.13775499,-87.40501000
9.14031499,-87.40501000
9.14287499,-87.40501000
9.14543499,-87.40501000
9.14799499,-87.40501000
9.15055499,-87.40501000
9.15311499,-87.40501000
9.15567499,-87.40501000
9.15823499,-87.40501000
9.16079499,-87.40501000
9.16335499,-87.40501000
9.16591499,-87.40501000
9.16847499,-87.40501000
9.17103499,-87.40501000
9.17359499,-87.40501000
9.17615499,-82.93404000
9.17871499,-87.40501000
9.18127499,-87.40501000
9.18383499,-82.93404000
9.18639499,-87.40501000
9.18895499,-87.40501000
9.19151499,-87.40501000
9.19407499,-87.40501000
9.19663499,-87.40501000
9.19919499,-87.40501000
9.20175499,-82.93404000
9.20431499,-87.40501000
9.20687499,-87.40501000
9.20943499,-87.40501000
9.21199499,-87.40501000
9.21455499,-82.93404000
9.21711499,-82.93404000
9.21967499,-87.40501000
9.22223499,-87.40501000
9.22479499,-87.40501000
9.22735499,-87.40501000
9.22991499,-87.40501000
9.23247499,-87.40501000
9.23503499,-87.40501000
9.23759499,-87.40501000
9.24015499,-87.40501000
9.24271499,-87.40501000
9.24527499,-82.93404000
9.24783499,-82.93404000
9.25039499,-82.93404000
9.25295499,-87.40501000
9.25551499,-87.40501000
9.25807499,-87.40501000
9.26063499,-82.93404000
9.26319499,-87.40501000
9.26575499,-87.40501000
9.26831499,-87.40501000
9.27087499,-87.40501000
9.27343499,-87.40501000
9.27599499,-87.40501000
9.27855499,-82.93404000
9.28111499,-82.93404000
9.28367499,-87.40501000
9.28623499,-87.40501000
9.28879499,-82.93404000
9.29135499,-87.40501000
9.29391499,-87.40501000
9.29647499,-87.40501000
9.29903499,-87.40501000
9.30159499,-87.40501000
9.30415499,-87.40501000
9.30671499,-87.40501000
9.30927499,-87.40501000
9.31183499,-87.40501000
9.31439499,-87.40501000
9.31695499,-82.93404000
9.31951499,-87.40501000
9.32207499,-87.40501000
9.32463499,-82.93404000
9.32719499,-87.40501000
9.32975499,-87.40501000
9.33231499,-87.40501000
9.33487499,-87.40501000
9.33743499,-87.40501000
9.33999499,-87.40501000
9.34255499,-87.40501000
9.34511499,-87.40501000
9.34767499,-82.93404000
9.35023499,-82.93404000
9.35279499,-87.40501000
9.35535499,-87.40501000
9.35791499,-87.40501000
9.36047499,-87.40501000
9.36303499,-87.40501000
9.36559499,-87.40501000
9.36815499,-82.93404000
9.37071499,-87.40501000
9.37327499,-87.40501000
9.37583499,-87.40501000
9.37839499,-87.40501000
9.38095499,-87.40501000
9.38351499,-82.93404000
9.38607499,-87.40501000
9.38863499,-82.93404000
9.39119499,-87.40501000
9.39375499,-87.40501000
9.39631499,-82.93404000
9.39887499,-82.93404000
9.40143499,-87.40501000
9.40399499,-87.40501000
9.40655499,-87.40501000
9.40911499,-87.40501000
9.41167499,-82.93404000
9.41423499,-82.93404000
9.41679499,-82.93404000
9.41935499,-87.40501000
9.42191499,-82.93404000
9.42447499,-87.40501000
9.42703499,-87.40501000
9.42959499,-82.93404000
9.43215499,-82.93404000
9.43471499,-82.93404000
9.43727499,-82.93404000
9.43983499,-82.93404000
9.44239499,-82.93404000
9.44495499,-82.93404000
9.44751499,-82.93404000
9.45007499,-82.93404000
9.45263499,-82.93404000
9.45519499,-82.93404000
9.45775499,-82.93404000
9.46031499,-82.93404000
9.46287499,-87.40501000
9.46543499,-87.40501000
9.46799499,-87.40501000
9.47055499,-87.40501000
9.47311499,-82.93404000
9.47567499,-87.40501000
9.47823499,-82.93404000
9.48079499,-87.40501000
9.48335499,-82.93404000
9.48591499,-82.93404000
9.48847499,-82.93404000
9.49103499,-82.93404000
9.49359499,-82.93404000
9.49615499,-82.93404000
9.49871499,-82.93404000
9.50127499,-82.93404000
9.50383499,-82.93404000
9.50639499,-82.93404000
9.50895499,-82.93404000
9.51151499,-82.93404000
9.51407499,-82.93404000
9.51663499,-82.93404000
9.51919499,-82.93404000
9.52175499,-82.93404000
9.52431499,-82.93404000
9.52687499,-82.93404000
9.52943499,-82.93404000
9.53199499,-82.93404000
9.53455499,-82.93404000
9.53711499,-82.93404000
9.53967499,-82.93404000
9.54223499,-82.93404000
9.54479499,-82.93404000
9.54735499,-82.93404000
9.54991499,-82.93404000
9.55247499,-82.93404000
9.55503499,-82.93404000
9.55759499,-82.93404000
9.56015499,-82.93404000
9.56271499,-82.93404000
9.56527499,-82.93404000
9.56783499,-82.93404000
9.57039499,-82.93404000
9.57295499,-82.93404000
9.57551499,-82.93404000
9.57807499,-82.93404000
9.58063499,-82.93404000
9.58319499,-82.93404000
9.58575499,-82.93404000
9.58831499,-82.93404000
9.59087499,-82.93404000
9.59343499,-82.93404000
9.59599499,-82.93404000
9.59855499,-82.93404000
9.60111499,-82.93404000
9.60367499,-82.93404000
9.60623499,-82.93404000
9.60879499,-82.93404000
9.61135499,-82.93404000
9.61391499,-78.46308000
9.61647499,-82.93404000
9.61903499,-82.93404000
9.62159499,-82.93404000
9.62415499,-82.93404000
9.62671499,-82.93404000
9.62927499,-82.93404000
9.63183499,-82.93404000
9.63439499,-82.93404000
9.63695499,-82.93404000
9.63951499,-82.93404000
9.64207499,-82.93404000
9.64463499,-82.93404000
9.64719499,-82.93404000
9.64975499,-82.93404000
9.65231499,-82.93404000
9.65487499,-82.93404000
9.65743499,-78.46308000
9.65999499,-82.93404000
9.66255499,-82.93404000
9.66511499,-78.46308000
9.66767499,-78.46308000
9.67023499,-78.46308000
9.67279499,-82.93404000
9.67535499,-78.46308000
9.67791499,-78.46308000
9.68047499,-78.46308000
9.68303499,-78.46308000
9.68559499,-78.46308000
9.68815499,-78.46308000
9.69071499,-78.46308000
9.69327499,-78.46308000
9.69583499,-78.46308000
9.69839499,-78.46308000
9.70095499,-78.46308000
9.70351499,-78.46308000
9.70607499,-78.46308000
9.70863499,-78.46308000
9.71119499,-82.93404000
9.71375499,-78.46308000
9.71631499,-78.46308000
9.71887499,-78.46308000
9.72143499,-78.46308000
9.72399499,-82.93404000
9.72655499,-82.93404000
9.72911499,-78.46308000
9.73167499,-78.46308000
9.73423499,-78.46308000
9.73679499,-78.46308000
9.73935499,-78.46308000
9.74191499,-78.46308000
9.74447499,-78.46308000
9.74703499,-82.93404000
9.74959499,-78.46308000
9.75215499,-78.46308000
9.75471499,-78.46308000
9.75727499,-78.46308000
9.75983499,-78.46308000
9.76239499,-78.46308000
9.76495499,-78.46308000
9.76751499,-78.46308000
9.77007499,-78.46308000
9.77263499,-78.46308000
9.77519499,-78.46308000
9.77775499,-78.46308000
9.78031499,-78.46308000
9.78287499,-78.46308000
9.78543499,-78.46308000
9.78799499,-78.46308000
9.79055499,-78.46308000
9.79311499,-78.46308000
9.79567499,-78.46308000
9.79823499,-78.46308000
9.80079499,-78.46308000
9.80335499,-78.46308000
9.80591499,-78.46308000
9.80847499,-78.46308000
9.81103499,-78.46308000
9.81359499,-78.46308000
9.81615499,-78.46308000
9.81871499,-78.46308000
9.82127499,-78.46308000
9.82383499,-78.46308000
9.82639499,-78.46308000
9.82895499,-78.46308000
9.83151499,-78.46308000
9.83407499,-78.46308000
9.83663499,-78.46308000
9.83919499,-78.46308000
9.84175499,-78.46308000
9.84431499,-78.46308000
9.84687498,-78.46308000
9.84943498,-78.46308000
9.85199498,-78.46308000
9.85455498,-78.46308000
9.85711498,-78.46308000
9.85967498,-78.46308000
9.86223498,-78.46308000
9.86479498,-78.46308000
9.86735498,-78.46308000
9.86991498,-78.46308000
9.87247498,-78.46308000
9.87503498,-78.46308000
9.87759498,-78.46308000
9.88015498,-78.46308000
9.88271498,-78.46308000
9.88527498,-78.46308000
9.88783498,-78.46308000
9.89039498,-78.46308000
9.89295498,-78.46308000
9.89551498,-78.46308000
9.89807498,-78.46308000
9.90063498,-78.46308000
9.90319498,-78.46308000
9.90575498,-78.46308000
9.90831498,-78.46308000
9.91087498,-78.46308000
9.91343498,-78.46308000
9.91599498,-78.46308000
9.91855498,-78.46308000
9.92111498,-78.46308000
9.92367498,-78.46308000
9.92623498,-78.46308000
9.92879498,-78.46308000
9.93135498,-78.46308000
9.93391498,-78.46308000
9.93647498,-78.46308000
9.93903498,-78.46308000
9.94159498,-78.46308000
9.94415498,-78.46308000
9.94671498,-78.46308000
9.94927498,-78.46308000
9.95183498,-78.46308000
9.95439498,-78.46308000
9.95695498,-78.46308000
9.95951498,-78.46308000
9.96207498,-78.46308000
9.96463498,-78.46308000
9.96719498,-78.46308000
9.96975498,-78.46308000
9.97231498,-78.46308000
9.97487498,-78.46308000
9.97743498,-78.46308000
9.97999498,-78.46308000
9.98255498,-78.46308000
9.98511498,-78.46308000
9.98767498,-78.46308000
9.99023498,-78.46308000
9.99279498,-73.99212000
9.99535498,-78.46308000
9.99791498,-78.46308000
10.00047498,-78.46308000
10.00303498,-78.46308000
10.00559498,-78.46308000
10.00815498,-78.46308000
10.01071498,-78.46308000
10.01327498,-78.46308000
10.01583498,-78.46308000
10.01839498,-78.46308000
10.02095498,-78.46308000
10.02351498,-78.46308000
10.02607498,-78.46308000
10.02863498,-78.46308000
10.03119498,-78.46308000
10.03375498,-78.46308000
10.03631498,-78.46308000
10.03887498,-73.99212000
10.04143498,-78.46308000
10.04399498,-78.46308000
10.04655498,-78.46308000
10.04911498,-78.46308000
10.05167498,-78.46308000
10.05423498,-78.46308000
10.05679498,-78.46308000
10.05935498,-73.99212000
10.06191498,-73.99212000
10.06447498,-78.46308000
10.06703498,-73.99212000
10.06959498,-73.99212000
10.07215498,-73.99212000
10.07471498,-78.46308000
10.07727498,-78.46308000
10.07983498,-73.99212000
10.08239498,-78.46308000
10.08495498,-78.46308000
10.08751498,-78.46308000
10.09007498,-78.46308000
10.09263498,-78.46308000
10.09519498,-78.46308000
10.09775498,-73.99212000
10.10031498,-73.99212000
10.10287498,-73.99212000
10.10543498,-73.99212000
10.10799498,-73.99212000
10.11055498,-78.46308000
10.11311498,-73.99212000
10.11567498,-73.99212000
10.11823498,-73.99212000
10.12079498,-73.99212000
10.12335498,-73.99212000
10.12591498,-78.46308000
10.12847498,-73.99212000
10.13103498,-73.99212000
10.13359498,-78.46308000
10.13615498,-78.46308000
10.13871498,-73.99212000
10.14127498,-73.99212000
10.14383498,-73.99212000
10.14639498,-78.46308000
10.14895498,-73.99212000
10.15151498,-73.99212000
10.15407498,-78.46308000
10.15663498,-73.99212000
10.15919498,-78.46308000
10.16175498,-78.46308000
10.16431498,-73.99212000
10.16687498,-78.46308000
10.16943498,-78.46308000
10.17199498,-78.46308000
10.17455498,-78.46308000
10.17711498,-73.99212000
10.17967498,-73.99212000
10.18223498,-78.46308000
10.18479498,-78.46308000
10.18735498,-73.99212000
10.18991498,-78.46308000
10.19247498,-73.99212000
10.19503498,-73.99212000
10.19759498,-78.46308000
10.20015498,-73.99212000
10.20271498,-78.46308000
10.20527498,-78.46308000
10.20783498,-78.46308000
10.21039498,-78.46308000
10.21295498,-78.46308000
10.21551498,-73.99212000
10.21807498,-78.46308000
10.22063498,-78.46308000
10.22319498,-78.46308000
10.22575498,-78.46308000
10.22831498,-73.99212000
10.23087498,-73.99212000
10.23343498,-73.99212000
10.23599498,-78.46308000
10.23855498,-78.46308000
10.24111498,-78.46308000
10.24367498,-78.46308000
10.24623498,-78.46308000
10.24879498,-78.46308000
10.25135498,-73.99212000
10.25391498,-78.46308000
10.25647498,-78.46308000
10.25903498,-78.46308000
10.26159498,-78.46308000
10.26415498,-73.99212000
10.26671498,-78.46308000
10.26927498,-78.46308000
10.27183498,-78.46308000
10.27439498,-73.99212000
10.27695498,-78.46308000
10.27951498,-78.46308000
10.28207498,-78.46308000
10.28463498,-78.46308000
10.28719498,-78.46308000
10.28975498,-78.46308000
10.29231498,-78.46308000
10.29487498,-78.46308000
10.29743498,-73.99212000
10.29999498,-73.99212000
10.30255498,-73.99212000
10.30511498,-78.46308000
10.30767498,-78.46308000
10.31023498,-78.46308000
10.31279498,-78.46308000
10.31535498,-78.46308000
10.31791498,-73.99212000
10.32047498,-78.46308000
10.32303498,-78.46308000
10.32559498,-78.46308000
10.32815498,-78.46308000
10.33071498,-78.46308000
10.33327498,-78.46308000
10.33583498,-78.46308000
10.33839498,-73.99212000
10.34095498,-78.46308000
10.34351498,-78.46308000
10.34607498,-78.46308000
10.34863498,-78.46308000
10.35119498,-78.46308000
10.35375498,-73.99212000
10.35631498,-78.46308000
10.35887498,-78.46308000
10.36143498,-78.46308000
10.36399498,-73.99212000
10.36655498,-73.99212000
10.36911498,-78.46308000
10.37167498,-78.46308000
10.37423498,-73.99212000
10.37679498,-78.46308000
10.37935498,-78.46308000
10.38191498,-78.46308000
10.38447498,-78.46308000
10.38703498,-73.99212000
10.38959498,-78.46308000
10.39215498,-78.46308000
10.39471498,-78.46308000
10.39727498,-78.46308000
10.39983498,-73.99212000
10.40239498,-78.46308000
10.40495498,-78.46308000
10.40751498,-78.46308000
10.41007498,-78.46308000
10.41263498,-73.99212000
10.41519498,-78.46308000
10.41775498,-73.99212000
10.42031498,-78.46308000
10.42287498,-73.99212000
10.42543498,-78.46308000
10.42799498,-73.99212000
10.43055498,-78.46308000
10.43311498,-73.99212000
10.43567498,-78.46308000
10.43823498,-73.99212000
10.44079498,-73.99212000
10.44335498,-73.99212000
10.44591498,-78.46308000
10.44847498,-73.99212000
10.45103498,-73.99212000
10.45359498,-73.99212000
10.45615498,-73.99212000
10.45871498,-73.99212000
10.46127498,-73.99212000
10.46383498,-73.99212000
10.46639498,-73.99212000
10.46895498,-73.99212000
10.47151498,-73.99212000
10.47407498,-69.50591000
10.47663498,-73.99212000
10.47919498,-73.99212000
10.48175498,-73.99212000
10.48431498,-73.99212000
10.48687498,-73.99212000
10.48943498,-73.99212000
10.49199498,-73.99212000
10.49455498,-73.99212000
10.49711498,-73.99212000
10.49967498,-73.99212000
10.50223498,-73.99212000
10.50479498,-73.99212000
10.50735498,-69.50591000
10.50991498,-69.50591000
10.51247498,-73.99212000
10.51503498,-73.99212000
10.51759498,-73.99212000
10.52015498,-73.99212000
10.52271498,-73.99212000
10.52527498,-73.99212000
10.52783498,-73.99212000
10.53039498,-73.99212000
10.53295498,-73.99212000
10.53551498,-73.99212000
10.53807498,-73.99212000
10.54063498,-69.50591000
10.54319498,-73.99212000
10.54575498,-73.99212000
10.54831498,-73.99212000
10.55087498,-73.99212000
10.55343498,-73.99212000
10.55599498,-73.99212000
10.55855498,-73.99212000
10.56111498,-73.99212000
10.56367498,-73.99212000
10.56623498,-73.99212000
10.56879498,-73.99212000
10.57135498,-78.46308000
10.57391498,-73.99212000
10.57647498,-69.50591000
10.57903498,-69.50591000
10.58159498,-73.99212000
10.58415498,-73.99212000
10.58671498,-69.50591000
10.58927498,-73.99212000
10.59183498,-73.99212000
10.59439498,-73.99212000
10.59695498,-69.50591000
10.59951498,-78.46308000
10.60207498,-73.99212000
10.60463498,-73.99212000
10.60719498,-73.99212000
10.60975498,-73.99212000
10.61231498,-73.99212000
10.61487498,-73.99212000
10.61743498,-73.99212000
10.61999498,-73.99212000
10.62255498,-73.99212000
10.62511498,-73.99212000
10.62767498,-73.99212000
10.63023498,-69.50591000
10.63279498,-73.99212000
10.63535498,-73.99212000
10.63791498,-73.99212000
10.64047498,-73.99212000
10.64303498,-73.99212000
10.64559498,-73.99212000
10.64815498,-73.99212000
10.65071498,-73.99212000
10.65327498,-69.50591000
10.65583498,-73.99212000
10.65839498,-78.46308000
10.66095498,-69.50591000
10.66351498,-73.99212000
10.66607498,-73.99212000
10.66863498,-73.99212000
10.67119498,-78.46308000
10.67375498,-78.46308000
10.67631498,-78.46308000
10.67887498,-73.99212000
10.68143498,-73.99212000
10.68399498,-73.99212000
10.68655498,-73.99212000
10.68911498,-73.99212000
10.69167498,-73.99212000
10.69423498,-73.99212000
10.69679498,-73.99212000
10.69935498,-73.99212000
10.70191498,-73.99212000
10.70447498,-73.99212000
10.70703498,-73.99212000
10.70959498,-73.99212000
10.71215498,-73.99212000
10.71471498,-73.99212000
10.71727498,-73.99212000
10.71983498,-73.99212000
10.72239498,-73.99212000
10.72495498,-78.46308000
10.72751498,-73.99212000
10.73007498,-73.99212000
10.73263498,-73.99212000
10.73519498,-78.46308000
10.73775498,-78.46308000
10.74031498,-78.46308000
10.74287498,-78.46308000
10.74543498,-78.46308000
10.74799498,-78.46308000
10.75055498,-78.46308000
10.75311498,-78.46308000
10.75567498,-73.99212000
10.75823498,-78.46308000
10.76079498,-78.46308000
10.76335498,-78.46308000
10.76591498,-73.99212000
10.76847498,-78.46308000
10.77103498,-78.46308000
10.77359498,-78.46308000
10.77615498,-78.46308000
10.77871498,-78.46308000
10.78127498,-78.46308000
10.78383498,-78.46308000
10.78639498,-78.46308000
10.78895498,-78.46308000
10.79151498,-73.99212000
10.79407498,-78.46308000
10.79663498,-73.99212000
10.79919498,-78.46308000
10.80175498,-78.46308000
10.80431498,-73.99212000
10.80687498,-78.46308000
10.80943498,-73.99212000
10.81199498,-73.99212000
10.81455498,-73.99212000
10.81711498,-73.99212000
10.81967498,-78.46308000
10.82223498,-78.46308000
10.82479498,-73.99212000
10.82735498,-78.46308000
10.82991498,-78.46308000
10.83247498,-78.46308000
10.83503498,-73.99212000
10.83759498,-78.46308000
10.84015498,-73.99212000
10.84271498,-73.99212000
10.84527498,-73.99212000
10.84783498,-73.99212000
10.85039498,-73.99212000
10.85295498,-73.99212000
10.85551498,-78.46308000
10.85807498,-73.99212000
10.86063498,-73.99212000
10.86319498,-73.99212000
10.86575498,-73.99212000
10.86831498,-78.46308000
10.87087498,-73.99212000
10.87343498,-73.99212000
10.87599498,-73.99212000
10.87855498,-73.99212000
10.88111498,-73.99212000
10.88367498,-73.99212000
10.88623498,-73.99212000
10.88879498,-73.99212000
10.89135498,-73.99212000
10.89391498,-69.50591000
10.89647498,-73.99212000
10.89903498,-73.99212000
10.90159498,-73.99212000
10.90415498,-69.50591000
10.90671498,-73.99212000
10.90927498,-73.99212000
10.91183498,-73.99212000
10.91439498,-73.99212000
10.91695498,-73.99212000
10.91951498,-73.99212000
10.92207498,-69.50591000
10.92463498,-69.50591000
10.92719498,-73.99212000
10.92975498,-73.99212000
10.93231498,-73.99212000
10.93487498,-73.99212000
10.93743498,-73.99212000
10.93999498,-73.99212000
10.94255498,-73.99212000
10.94511498,-73.99212000
10.94767498,-78.46308000
10.95023498,-73.99212000
10.95279498,-73.99212000
10.95535498,-73.99212000
10.95791498,-73.99212000
10.96047498,-73.99212000
10.96303498,-73.99212000
10.96559498,-73.99212000
10.96815498,-73.99212000
10.97071498,-73.99212000
10.97327498,-73.99212000
10.97583498,-73.99212000
10.97839498,-73.99212000
10.98095498,-73.99212000
10.98351498,-78.46308000
10.98607498,-73.99212000
10.98863498,-73.99212000
10.99119498,-73.99212000
10.99375498,-73.99212000
10.99631498,-73.99212000
10.99887498,-73.99212000
11.00143498,-73.99212000
11.00399498,-73.99212000
11.00655498,-73.99212000
11.00911498,-78.46308000
11.01167498,-73.99212000
11.01423498,-73.99212000
11.01679498,-73.99212000
11.01935498,-73.99212000
11.02191498,-78.46308000
11.02447498,-73.99212000
11.02703498,-73.99212000
11.02959498,-73.99212000
11.03215498,-78.46308000
11.03471498,-73.99212000
11.03727498,-73.99212000
11.03983498,-73.99212000
11.04239498,-73.99212000
11.04495498,-78.46308000
11.04751498,-73.99212000
11.05007498,-73.99212000
11.05263498,-73.99212000
11.05519498,-73.99212000
11.05775498,-78.46308000
11.06031498,-73.99212000
11.06287498,-78.46308000
11.06543498,-73.99212000
11.06799498,-73.99212000
11.07055498,-73.99212000
11.07311498,-73.99212000
11.07567498,-78.46308000
11.07823498,-78.46308000
11.08079498,-78.46308000
11.08335498,-73.99212000
11.08591498,-73.99212000
11.08847498,-78.46308000
11.09103498,-78.46308000
11.09359498,-73.99212000
11.09615498,-73.99212000
11.09871498,-73.99212000
11.10127498,-78.46308000
11.10383498,-73.99212000
11.10639498,-73.99212000
11.10895498,-73.99212000
11.11151498,-73.99212000
11.11407498,-78.46308000
11.11663498,-78.46308000
11.11919498,-73.99212000
11.12175498,-78.46308000
11.12431498,-73.99212000
11.12687498,-73.99212000
11.12943498,-78.46308000
11.13199498,-78.46308000
11.13455498,-78.46308000
11.13711498,-73.99212000
11.13967498,-73.99212000
11.14223498,-73.99212000
11.14479498,-78.46308000
11.14735498,-73.99212000
11.14991498,-73.99212000
11.15247498,-73.99212000
11.15503498,-73.99212000
11.15759498,-73.99212000
11.16015498,-78.46308000
11.16271498,-73.99212000
11.16527498,-73.99212000
11.16783498,-73.99212000
11.17039498,-73.99212000
11.17295498,-73.99212000
11.17551498,-78.46308000
11.17807498,-78.46308000
11.18063498,-78.46308000
11.18319498,-73.99212000
11.18575498,-73.99212000
11.18831498,-73.99212000
11.19087498,-73.99212000
11.19343498,-73.99212000
11.19599498,-73.99212000
11.19855498,-73.99212000
11.20111498,-73.99212000
11.20367498,-73.99212000
11.20623498,-69.50591000
11.20879498,-73.99212000
11.21135498,-73.99212000
11.21391498,-73.99212000
11.21647498,-73.99212000
11.21903498,-73.99212000
11.22159498,-69.50591000
11.22415498,-73.99212000
11.22671498,-73.99212000
11.22927498,-78.46308000
11.23183498,-73.99212000
11.23439498,-73.99212000
11.23695498,-69.50591000
11.23951498,-69.50591000
11.24207498,-69.50591000
11.24463498,-73.99212000
11.24719498,-73.99212000
11.24975498,-73.99212000
11.25231498,-73.99212000
11.25487498,-73.99212000
11.25743498,-73.99212000
11.25999498,-73.99212000
11.26255498,-73.99212000
11.26511498,-73.99212000
11.26767498,-69.50591000
11.27023498,-73.99212000
11.27279498,-73.99212000
11.27535498,-73.99212000
11.27791498,-73.99212000
11.28047498,-73.99212000
11.28303498,-69.50591000
11.28559498,-73.99212000
11.28815498,-73.99212000
11.29071498,-73.99212000
11.29327498,-73.99212000
11.29583498,-69.50591000
11.29839498,-73.99212000
11.30095498,-69.50591000
11.30351498,-73.99212000
11.30607498,-69.50591000
11.30863498,-73.99212000
11.31119498,-73.99212000
11.31375498,-73.99212000
11.31631498,-73.99212000
11.31887498,-69.50591000
11.32143498,-73.99212000
11.32399498,-69.50591000
11.32655498,-73.99212000
11.32911498,-73.99212000
11.33167498,-73.99212000
11.33423498,-73.99212000
11.33679498,-73.99212000
11.33935498,-73.99212000
11.34191498,-73.99212000
11.34447498,-69.50591000
11.34703498,-73.99212000
11.34959498,-73.99212000
11.35215498,-69.50591000
11.35471498,-69.50591000
11.35727498,-73.99212000
11.35983498,-73.99212000
11.36239498,-73.99212000
11.36495498,-73.99212000
11.36751498,-69.50591000
11.37007498,-73.99212000
11.37263498,-73.99212000
11.37519498,-73.99212000
11.37775498,-73.99212000
11.38031498,-73.99212000
11.38287498,-73.99212000
11.38543498,-73.99212000
11.38799498,-73.99212000
11.39055498,-69.50591000
11.39311498,-73.99212000
11.39567498,-73.99212000
11.39823498,-69.50591000
11.40079498,-73.99212000
11.40335498,-73.99212000
11.40591498,-73.99212000
11.40847498,-73.99212000
11.41103498,-69.50591000
11.41359498,-73.99212000
11.41615498,-73.99212000
11.41871498,-73.99212000
11.42127498,-73.99212000
11.42383498,-73.99212000
11.42639498,-73.99212000
11.42895498,-73.99212000
11.43151498,-73.99212000
11.43407498,-73.99212000
11.43663498,-73.99212000
11.43919498,-73.99212000
11.44175498,-73.99212000
11.44431498,-73.99212000
11.44687498,-73.99212000
11.44943498,-73.99212000
11.45199498,-73.99212000
11.45455498,-73.99212000
11.45711498,-73.99212000
11.45967498,-73.99212000
11.46223498,-73.99212000
11.46479498,-73.99212000
11.46735498,-73.99212000
11.46991498,-73.99212000
11.47247498,-78.46308000
11.47503498,-73.99212000
11.47759498,-73.99212000
11.48015498,-73.99212000
11.48271498,-73.99212000
11.48527498,-78.46308000
11.48783498,-73.99212000
11.49039497,-73.99212000
11.49295497,-73.99212000
11.49551497,-73.99212000
11.49807497,-78.46308000
11.50063497,-73.99212000
11.50319497,-73.99212000
11.50575497,-73.99212000
11.50831497,-73.99212000
11.51087497,-73.99212000
11.51343497,-78.46308000
11.51599497,-78.46308000
11.51855497,-78.46308000
11.52111497,-78.46308000
11.52367497,-73.99212000
11.52623497,-78.46308000
11.52879497,-78.46308000
11.53135497,-78.46308000
11.53391497,-78.46308000
11.53647497,-78.46308000
11.53903497,-78.46308000
11.54159497,-78.46308000
11.54415497,-78.46308000
11.54671497,-78.46308000
11.54927497,-78.46308000
11.55183497,-78.46308000
11.55439497,-78.46308000
11.55695497,-78.46308000
11.55951497,-78.46308000
11.56207497,-78.46308000
11.56463497,-78.46308000
11.56719497,-78.46308000
11.56975497,-78.46308000
11.57231497,-78.46308000
11.57487497,-78.46308000
11.57743497,-78.46308000
11.57999497,-78.46308000
11.58255497,-78.46308000
11.58511497,-78.46308000
11.58767497,-78.46308000
11.59023497,-78.46308000
11.59279497,-78.46308000
11.59535497,-78.46308000
11.59791497,-78.46308000
11.60047497,-73.99212000
11.60303497,-78.46308000
11.60559497,-78.46308000
11.60815497,-73.99212000
11.61071497,-73.99212000
11.61327497,-78.46308000
11.61583497,-78.46308000
11.61839497,-78.46308000
11.62095497,-78.46308000
11.62351497,-78.46308000
11.62607497,-78.46308000
11.62863497,-78.46308000
11.63119497,-78.46308000
11.63375497,-78.46308000
11.63631497,-78.46308000
11.63887497,-78.46308000
11.64143497,-78.46308000
11.64399497,-78.46308000
11.64655497,-78.46308000
11.64911497,-78.46308000
11.65167497,-73.99212000
11.65423497,-78.46308000
11.65679497,-78.46308000
11.65935497,-78.46308000
11.66191497,-78.46308000
11.66447497,-78.46308000
11.66703497,-78.46308000
11.66959497,-78.46308000
11.67215497,-78.46308000
11.67471497,-78.46308000
11.67727497,-78.46308000
11.67983497,-78.46308000
11.68239497,-78.46308000
11.68495497,-78.46308000
11.68751497,-73.99212000
11.69007497,-73.99212000
11.69263497,-78.46308000
11.69519497,-78.46308000
11.69775497,-78.46308000
11.70031497,-78.46308000
11.70287497,-73.99212000
11.70543497,-78.46308000
11.70799497,-78.46308000
11.71055497,-78.46308000
11.71311497,-78.46308000
11.71567497,-78.46308000
11.71823497,-73.99212000
11.72079497,-78.46308000
11.72335497,-73.99212000
11.72591497,-78.46308000
11.72847497,-73.99212000
11.73103497,-73.99212000
11.73359497,-73.99212000
11.73615497,-78.46308000
11.73871497,-73.99212000
11.74127497,-78.46308000
11.74383497,-78.46308000
11.74639497,-73.99212000
11.74895497,-73.99212000
11.75151497,-73.99212000
11.75407497,-73.99212000
11.75663497,-73.99212000
11.75919497,-73.99212000
11.76175497,-73.99212000
11.76431497,-78.46308000
11.76687497,-73.99212000
11.76943497,-78.46308000
11.77199497,-73.99212000
11.77455497,-73.99212000
11.77711497,-78.46308000
11.77967497,-73.99212000
11.78223497,-78.46308000
11.78479497,-78.46308000
11.78735497,-78.46308000
11.78991497,-78.46308000
11.79247497,-73.99212000
11.79503497,-78.46308000
11.79759497,-73.99212000
11.80015497,-73.99212000
11.80271497,-78.46308000
11.80527497,-78.46308000
11.80783497,-73.99212000
11.81039497,-73.99212000
11.81295497,-78.46308000
11.81551497,-73.99212000
11.81807497,-73.99212000
11.82063497,-78.46308000
11.82319497,-78.46308000
11.82575497,-69.50591000
11.82831497,-73.99212000
11.83087497,-73.99212000
11.83343497,-73.99212000
11.83599497,-73.99212000
11.83855497,-73.99212000
11.84111497,-78.46308000
11.84367497,-78.46308000
11.84623497,-78.46308000
11.84879497,-73.99212000
11.85135497,-73.99212000
11.85391497,-78.46308000
11.85647497,-73.99212000
11.85903497,-73.99212000
11.86159497,-78.46308000
11.86415497,-78.46308000
11.86671497,-78.46308000
11.86927497,-78.46308000
11.87183497,-73.99212000
11.87439497,-78.46308000
11.87695497,-78.46308000
11.87951497,-78.46308000
11.88207497,-78.46308000
11.88463497,-73.99212000
11.88719497,-78.46308000
11.88975497,-73.99212000
11.89231497,-78.46308000
11.89487497,-73.99212000
11.89743497,-73.99212000
11.89999497,-78.46308000
11.90255497,-73.99212000
11.90511497,-78.46308000
11.90767497,-78.46308000
11.91023497,-78.46308000
11.91279497,-73.99212000
11.91535497,-78.46308000
11.91791497,-73.99212000
11.92047497,-78.46308000
11.92303497,-78.46308000
11.92559497,-78.46308000
11.92815497,-78.46308000
11.93071497,-78.46308000
11.93327497,-78.46308000
11.93583497,-78.46308000
11.93839497,-78.46308000
11.94095497,-78.46308000
11.94351497,-78.46308000
11.94607497,-78.46308000
11.94863497,-73.99212000
11.95119497,-73.99212000
11.95375497,-73.99212000
11.95631497,-78.46308000
11.95887497,-73.99212000
11.96143497,-73.99212000
11.96399497,-73.99212000
11.96655497,-73.99212000
11.96911497,-78.46308000
11.97167497,-73.99212000
11.97423497,-78.46308000
11.97679497,-73.99212000
11.97935497,-73.99212000
11.98191497,-78.46308000
11.98447497,-73.99212000
11.98703497,-78.46308000
11.98959497,-73.99212000
11.99215497,-73.99212000
11.99471497,-78.46308000
11.99727497,-73.99212000
11.99983497,-78.46308000
12.00239497,-78.46308000
12.00495497,-78.46308000
12.00751497,-73.99212000
12.01007497,-73.99212000
12.01263497,-78.46308000
12.01519497,-78.46308000
12.01775497,-78.46308000
12.02031497,-73.99212000
12.02287497,-78.46308000
12.02543497,-73.99212000
12.02799497,-78.46308000
12.03055497,-73.99212000
12.03311497,-78.46308000
12.03567497,-73.99212000
12.03823497,-73.99212000
12.04079497,-78.46308000
12.04335497,-78.46308000
12.04591497,-78.46308000
12.04847497,-73.99212000
12.05103497,-78.46308000
12.05359497,-78.46308000
12.05615497,-78.46308000
12.05871497,-78.46308000
12.06127497,-78.46308000
12.06383497,-73.99212000
12.06639497,-73.99212000
12.06895497,-78.46308000
12.07151497,-78.46308000
12.07407497,-78.46308000
12.07663497,-78.46308000
12.07919497,-78.46308000
12.08175497,-73.99212000
12.08431497,-73.99212000
12.08687497,-73.99212000
12.08943497,-78.46308000
12.09199497,-73.99212000
12.09455497,-78.46308000
12.09711497,-78.46308000
12.09967497,-78.46308000
12.10223497,-73.99212000
12.10479497,-73.99212000
12.10735497,-78.46308000
12.10991497,-73.99212000
12.11247497,-78.46308000
12.11503497,-73.99212000
12.11759497,-73.99212000
12.12015497,-73.99212000
12.12271497,-78.46308000
12.12527497,-73.99212000
12.12783497,-73.99212000
12.13039497,-73.99212000
12.13295497,-73.99212000
12.13551497,-73.99212000
12.13807497,-73.99212000
12.14063497,-73.99212000
12.14319497,-73.99212000
12.14575497,-78.46308000
12.14831497,-73.99212000
12.15087497,-69.50591000
12.15343497,-73.99212000
12.15599497,-73.99212000
12.15855497,-73.99212000
12.16111497,-73.99212000
12.16367497,-73.99212000
12.16623497,-73.99212000
12.16879497,-73.99212000
12.17135497,-73.99212000
12.17391497,-73.99212000
12.17647497,-73.99212000
12.17903497,-73.99212000
12.18159497,-73.99212000
12.18415497,-73.99212000
12.18671497,-73.99212000
12.18927497,-73.99212000
12.19183497,-73.99212000
12.19439497,-73.99212000
12.19695497,-73.99212000
12.19951497,-78.46308000
12.20207497,-73.99212000
12.20463497,-73.99212000
12.20719497,-73.99212000
12.20975497,-73.99212000
12.21231497,-73.99212000
12.21487497,-73.99212000
12.21743497,-73.99212000
12.21999497,-73.99212000
12.22255497,-73.99212000
12.22511497,-73.99212000
12.22767497,-73.99212000
12.23023497,-78.46308000
12.23279497,-73.99212000
12.23535497,-78.46308000
12.23791497,-78.46308000
12.24047497,-73.99212000
12.24303497,-73.99212000
12.24559497,-73.99212000
12.24815497,-73.99212000
12.25071497,-73.99212000
12.25327497,-73.99212000
12.25583497,-73.99212000
12.25839497,-73.99212000
12.26095497,-73.99212000
12.26351497,-73.99212000
12.26607497,-73.99212000
12.26863497,-73.99212000
12.27119497,-73.99212000
12.27375497,-73.99212000
12.27631497,-73.99212000
12.27887497,-73.99212000
12.28143497,-73.99212000
12.28399497,-73.99212000
12.28655497,-73.99212000
12.28911497,-78.46308000
12.29167497,-73.99212000
12.29423497,-73.99212000
12.29679497,-73.99212000
12.29935497,-73.99212000
12.30191497,-73.99212000
12.30447497,-73.99212000
12.30703497,-73.99212000
12.30959497,-73.99212000
12.31215497,-73.99212000
12.31471497,-73.99212000
12.31727497,-73.99212000
12.31983497,-73.99212000
12.32239497,-73.99212000
12.32495497,-73.99212000
12.32751497,-73.99212000
12.33007497,-73.99212000
12.33263497,-73.99212000
12.33519497,-73.99212000
12.33775497,-73.99212000
12.34031497,-73.99212000
12.34287497,-73.99212000
12.34543497,-73.99212000
12.34799497,-78.46308000
12.35055497,-69.50591000
12.35311497,-78.46308000
12.35567497,-78.46308000
12.35823497,-73.99212000
12.36079497,-73.99212000
12.36335497,-73.99212000
12.36591497,-73.99212000
12.36847497,-73.99212000
12.37103497,-73.99212000
12.37359497,-73.99212000
12.37615497,-73.99212000
12.37871497,-73.99212000
12.38127497,-78.46308000
12.38383497,-73.99212000
12.38639497,-73.99212000
12.38895497,-78.46308000
12.39151497,-73.99212000
12.39407497,-73.99212000
12.39663497,-73.99212000
12.39919497,-73.99212000
12.40175497,-73.99212000
12.40431497,-78.46308000
12.40687497,-73.99212000
12.40943497,-73.99212000
12.41199497,-73.99212000
12.41455497,-73.99212000
12.41711497,-73.99212000
12.41967497,-78.46308000
12.42223497,-78.46308000
12.42479497,-78.46308000
12.42735497,-73.99212000
12.42991497,-73.99212000
12.43247497,-78.46308000
12.43503497,-73.99212000
12.43759497,-73.99212000
12.44015497,-73.99212000
12.44271497,-73.99212000
12.44527497,-78.46308000
12.44783497,-78.46308000
12.45039497,-78.46308000
12.45295497,-73.99212000
12.45551497,-73.99212000
12.45807497,-78.46308000
12.46063497,-73.99212000
12.46319497,-73.99212000
12.46575497,-73.99212000
12.46831497,-78.46308000
12.47087497,-73.99212000
12.47343497,-73.99212000
12.47599497,-78.46308000
12.47855497,-73.99212000
12.48111497,-73.99212000
12.48367497,-73.99212000
12.48623497,-73.99212000
12.48879497,-73.99212000
12.49135497,-78.46308000
12.49391497,-73.99212000
12.49647497,-78.46308000
12.49903497,-78.46308000
12.50159497,-78.46308000
12.50415497,-78.46308000
12.50671497,-73.99212000
12.50927497,-73.99212000
12.51183497,-73.99212000
12.51439497,-78.46308000
12.51695497,-73.99212000
12.51951497,-78.46308000
12.52207497,-78.46308000
12.52463497,-78.46308000
12.52719497,-73.99212000
12.52975497,-78.46308000
12.53231497,-78.46308000
12.53487497,-78.46308000
12.53743497,-73.99212000
12.53999497,-78.46308000
12.54255497,-73.99212000
12.54511497,-73.99212000
12.54767497,-78.46308000
12.55023497,-78.46308000
12.55279497,-78.46308000
12.55535497,-78.46308000
12.55791497,-78.46308000
12.56047497,-73.99212000
12.56303497,-78.46308000
12.56559497,-78.46308000
12.56815497,-78.46308000
12.57071497,-78.46308000
12.57327497,-78.46308000
12.57583497,-73.99212000
12.57839497,-73.99212000
12.58095497,-78.46308000
12.58351497,-78.46308000
12.58607497,-78.46308000
12.58863497,-78.46308000
12.59119497,-78.46308000
12.59375497,-78.46308000
12.59631497,-78.46308000
12.59887497,-73.99212000
12.60143497,-78.46308000
12.60399497,-78.46308000
12.60655497,-78.46308000
12.60911497,-78.46308000
12.61167497,-78.46308000
12.61423497,-78.46308000
12.61679497,-78.46308000
12.61935497,-73.99212000
12.62191497,-78.46308000
12.62447497,-78.46308000
12.62703497,-73.99212000
12.62959497,-73.99212000
12.63215497,-78.46308000
12.63471497,-73.99212000
12.63727497,-78.46308000
12.63983497,-78.46308000
12.64239497,-78.46308000
12.64495497,-73.99212000
12.64751497,-78.46308000
12.65007497,-78.46308000
12.65263497,-73.99212000
12.65519497,-73.99212000
12.65775497,-78.46308000
12.66031497,-73.99212000
12.66287497,-78.46308000
12.66543497,-73.99212000
12.66799497,-73.99212000
12.67055497,-78.46308000
12.67311497,-78.46308000
12.67567497,-78.46308000
12.67823497,-73.99212000
12.68079497,-73.99212000
12.68335497,-78.46308000
12.68591497,-73.99212000
12.68847497,-78.46308000
12.69103497,-78.46308000
12.69359497,-73.99212000
12.69615497,-73.99212000
12.69871497,-73.99212000
12.70127497,-78.46308000
12.70383497,-73.99212000
12.70639497,-73.99212000
12.70895497,-73.99212000
12.71151497,-73.99212000
12.71407497,-73.99212000
12.71663497,-73.99212000
12.71919497,-69.50591000
12.72175497,-73.99212000
12.72431497,-73.99212000
12.72687497,-73.99212000
12.72943497,-78.46308000
12.73199497,-73.99212000
12.73455497,-73.99212000
12.73711497,-73.99212000
12.73967497,-73.99212000
12.74223497,-73.99212000
12.74479497,-73.99212000
12.74735497,-73.99212000
12.74991497,-73.99212000
12.75247497,-73.99212000
12.75503497,-73.99212000
12.75759497,-73.99212000
12.76015497,-73.99212000
12.76271497,-78.46308000
12.76527497,-73.99212000
12.76783497,-73.99212000
12.77039497,-73.99212000
12.77295497,-73.99212000
12.77551497,-73.99212000
12.77807497,-73.99212000
12.78063497,-78.46308000
12.78319497,-73.99212000
12.78575497,-73.99212000
12.78831497,-73.99212000
12.79087497,-73.99212000
12.79343497,-73.99212000
12.79599497,-73.99212000
12.79855497,-73.99212000
12.80111497,-73.99212000
12.80367497,-73.99212000
12.80623497,-73.99212000
12.80879497,-73.99212000
12.81135497,-73.99212000
12.81391497,-78.46308000
12.81647497,-69.50591000
12.81903497,-69.50591000
12.82159497,-73.99212000
12.82415497,-73.99212000
12.82671497,-73.99212000
12.82927497,-73.99212000
12.83183497,-73.99212000
12.83439497,-69.50591000
12.83695497,-73.99212000
12.83951497,-78.46308000
12.84207497,-73.99212000
12.84463497,-73.99212000
12.84719497,-73.99212000
12.84975497,-73.99212000
12.85231497,-73.99212000
12.85487497,-73.99212000
12.85743497,-73.99212000
12.85999497,-73.99212000
12.86255497,-73.99212000
12.86511497,-73.99212000
12.86767497,-73.99212000
12.87023497,-73.99212000
12.87279497,-73.99212000
12.87535497,-73.99212000
12.87791497,-73.99212000
12.88047497,-73.99212000
12.88303497,-73.99212000
12.88559497,-73.99212000
12.88815497,-69.50591000
12.89071497,-73.99212000
12.89327497,-69.50591000
12.89583497,-73.99212000
12.89839497,-73.99212000
12.90095497,-73.99212000
12.90351497,-73.99212000
12.90607497,-73.99212000
12.90863497,-73.99212000
12.91119497,-73.99212000
12.91375497,-73.99212000
12.91631497,-73.99212000
12.91887497,-73.99212000
12.92143497,-73.99212000
12.92399497,-73.99212000
12.92655497,-78.46308000
12.92911497,-73.99212000
12.93167497,-73.99212000
12.93423497,-78.46308000
12.93679497,-73.99212000
12.93935497,-73.99212000
12.94191497,-73.99212000
12.94447497,-73.99212000
12.94703497,-73.99212000
12.94959497,-73.99212000
12.95215497,-78.46308000
12.95471497,-73.99212000
12.95727497,-73.99212000
12.95983497,-73.99212000
12.96239497,-73.99212000
12.96495497,-73.99212000
12.96751497,-73.99212000
12.97007497,-73.99212000
12.97263497,-78.46308000
12.97519497,-73.99212000
12.97775497,-78.46308000
12.98031497,-73.99212000
12.98287497,-73.99212000
12.98543497,-73.99212000
12.98799497,-73.99212000
12.99055497,-78.46308000
12.99311497,-73.99212000
12.99567497,-78.46308000
12.99823497,-78.46308000
13.00079497,-78.46308000
13.00335497,-73.99212000
13.00591497,-73.99212000
13.00847497,-73.99212000
13.01103497,-73.99212000
13.01359497,-73.99212000
13.01615497,-78.46308000
13.01871497,-73.99212000
13.02127497,-73.99212000
13.02383497,-78.46308000
13.02639497,-78.46308000
13.02895497,-78.46308000
13.03151497,-73.99212000
13.03407497,-78.46308000
13.03663497,-73.99212000
13.03919497,-73.99212000
13.04175497,-78.46308000
13.04431497,-78.46308000
13.04687497,-69.50591000
13.04943497,-73.99212000
13.05199497,-78.46308000
13.05455497,-78.46308000
13.05711497,-78.46308000
13.05967497,-73.99212000
13.06223497,-73.99212000
13.06479497,-73.99212000
13.06735497,-73.99212000
13.06991497,-73.99212000
13.07247497,-73.99212000
13.07503497,-73.99212000
13.07759497,-73.99212000
13.08015497,-78.46308000
13.08271497,-78.46308000
13.08527497,-78.46308000
13.08783497,-78.46308000
13.09039497,-73.99212000
13.09295497,-73.99212000
13.09551497,-73.99212000
13.09807497,-73.99212000
13.10063497,-73.99212000
13.10319497,-73.99212000
13.10575497,-73.99212000
13.10831497,-73.99212000
13.11087497,-73.99212000
13.11343497,-73.99212000
13.11599497,-73.99212000
13.11855497,-73.99212000
13.12111497,-73.99212000
13.12367497,-73.99212000
13.12623497,-73.99212000
13.12879497,-78.46308000
13.13135497,-73.99212000
13.13391497,-78.46308000
13.13647496,-73.99212000
13.13903496,-78.46308000
13.14159496,-78.46308000
13.14415496,-73.99212000
13.14671496,-73.99212000
13.14927496,-78.46308000
13.15183496,-73.99212000
13.15439496,-73.99212000
13.15695496,-73.99212000
13.15951496,-78.46308000
13.16207496,-73.99212000
13.16463496,-78.46308000
13.16719496,-78.46308000
13.16975496,-78.46308000
13.17231496,-73.99212000
13.17487496,-78.46308000
13.17743496,-78.46308000
13.17999496,-78.46308000
13.18255496,-73.99212000
13.18511496,-73.99212000
13.18767496,-78.46308000
13.19023496,-73.99212000
13.19279496,-73.99212000
13.19535496,-73.99212000
13.19791496,-78.46308000
13.20047496,-78.46308000
13.20303496,-78.46308000
13.20559496,-78.46308000
13.20815496,-73.99212000
13.21071496,-78.46308000
13.21327496,-78.46308000
13.21583496,-78.46308000
13.21839496,-78.46308000
13.22095496,-78.46308000
13.22351496,-78.46308000
13.22607496,-78.46308000
13.22863496,-73.99212000
13.23119496,-78.46308000
13.23375496,-78.46308000
13.23631496,-78.46308000
13.23887496,-78.46308000
13.24143496,-73.99212000
13.24399496,-78.46308000
13.24655496,-78.46308000
13.24911496,-78.46308000
13.25167496,-78.46308000
13.25423496,-78.46308000
13.25679496,-78.46308000
13.25935496,-78.46308000
13.26191496,-78.46308000
13.26447496,-78.46308000
13.26703496,-78.46308000
13.26959496,-78.46308000
13.27215496,-78.46308000
13.27471496,-78.46308000
13.27727496,-78.46308000
13.27983496,-78.46308000
13.28239496,-78.46308000
13.28495496,-78.46308000
13.28751496,-78.46308000
13.29007496,-78.46308000
13.29263496,-78.46308000
13.29519496,-73.99212000
13.29775496,-78.46308000
13.30031496,-78.46308000
13.30287496,-73.99212000
13.30543496,-78.46308000
13.30799496,-78.46308000
13.31055496,-73.99212000
13.31311496,-78.46308000
13.31567496,-73.99212000
13.31823496,-78.46308000
13.32079496,-78.46308000
13.32335496,-78.46308000
13.32591496,-73.99212000
13.32847496,-78.46308000
13.33103496,-78.46308000
13.33359496,-73.99212000
13.33615496,-78.46308000
13.33871496,-78.46308000
13.34127496,-78.46308000
13.34383496,-78.46308000
13.34639496,-73.99212000
13.34895496,-73.99212000
13.35151496,-78.46308000
13.35407496,-73.99212000
13.35663496,-73.99212000
13.35919496,-73.99212000
13.36175496,-73.99212000
13.36431496,-73.99212000
13.36687496,-78.46308000
13.36943496,-73.99212000
13.37199496,-78.46308000
13.37455496,-78.46308000
13.37711496,-78.46308000
13.37967496,-73.99212000
13.38223496,-78.46308000
13.38479496,-73.99212000
13.38735496,-73.99212000
13.38991496,-78.46308000
13.39247496,-78.46308000
13.39503496,-73.99212000
13.39759496,-73.99212000
13.40015496,-78.46308000
13.40271496,-78.46308000
13.40527496,-78.46308000
13.40783496,-78.46308000
13.41039496,-73.99212000
13.41295496,-78.46308000
13.41551496,-78.46308000
13.41807496,-78.46308000
13.42063496,-78.46308000
13.42319496,-78.46308000
13.42575496,-78.46308000
13.42831496,-78.46308000
13.43087496,-78.46308000
13.43343496,-78.46308000
13.43599496,-78.46308000
13.43855496,-78.46308000
13.44111496,-78.46308000
13.44367496,-78.46308000
13.44623496,-78.46308000
13.44879496,-78.46308000
13.45135496,-78.46308000
13.45391496,-78.46308000
13.45647496,-78.46308000
13.45903496,-78.46308000
13.46159496,-78.46308000
13.46415496,-78.46308000
13.46671496,-78.46308000
13.46927496,-78.46308000
13.47183496,-78.46308000
13.47439496,-78.46308000
13.47695496,-78.46308000
13.47951496,-78.46308000
13.48207496,-78.46308000
13.48463496,-78.46308000
13.48719496,-78.46308000
13.48975496,-78.46308000
13.49231496,-78.46308000
13.49487496,-78.46308000
13.49743496,-78.46308000
13.49999496,-78.46308000
13.50255496,-73.99212000
13.50511496,-78.46308000
13.50767496,-73.99212000
13.51023496,-73.99212000
13.51279496,-73.99212000
13.51535496,-78.46308000
13.51791496,-73.99212000
13.52047496,-78.46308000
13.52303496,-73.99212000
13.52559496,-78.46308000
13.52815496,-73.99212000
13.53071496,-73.99212000
13.53327496,-78.46308000
13.53583496,-73.99212000
13.53839496,-78.46308000
13.54095496,-78.46308000
13.54351496,-78.46308000
13.54607496,-73.99212000
13.54863496,-78.46308000
13.55119496,-73.99212000
13.55375496,-78.46308000
13.55631496,-73.99212000
13.55887496,-73.99212000
13.56143496,-73.99212000
13.56399496,-73.99212000
13.56655496,-73.99212000
13.56911496,-78.46308000
13.57167496,-73.99212000
13.57423496,-73.99212000
13.57679496,-78.46308000
13.57935496,-73.99212000
13.58191496,-78.46308000
13.58447496,-78.46308000
13.58703496,-73.99212000
13.58959496,-78.46308000
13.59215496,-78.46308000
13.59471496,-78.46308000
13.59727496,-78.46308000
13.59983496,-78.46308000
13.60239496,-78.46308000
13.60495496,-78.46308000
13.60751496,-78.46308000
13.61007496,-78.46308000
13.61263496,-78.46308000
13.61519496,-78.46308000
13.61775496,-78.46308000
13.62031496,-73.99212000
13.62287496,-78.46308000
13.62543496,-78.46308000
13.62799496,-78.46308000
13.63055496,-73.99212000
13.63311496,-73.99212000
13.63567496,-78.46308000
13.63823496,-78.46308000
13.64079496,-78.46308000
13.64335496,-73.99212000
13.64591496,-73.99212000
13.64847496,-73.99212000
13.65103496,-78.46308000
13.65359496,-78.46308000
13.65615496,-78.46308000
13.65871496,-78.46308000
13.66127496,-73.99212000
13.66383496,-73.99212000
13.66639496,-78.46308000
13.66895496,-78.46308000
13.67151496,-73.99212000
13.67407496,-73.99212000
13.67663496,-73.99212000
13.67919496,-73.99212000
13.68175496,-73.99212000
13.68431496,-73.99212000
13.68687496,-73.99212000
13.68943496,-73.99212000
13.69199496,-73.99212000
13.69455496,-73.99212000
13.69711496,-73.99212000
13.69967496,-73.99212000
13.70223496,-73.99212000
13.70479496,-78.46308000
13.70735496,-73.99212000
13.70991496,-78.46308000
13.71247496,-73.99212000
13.71503496,-73.99212000
13.71759496,-69.50591000
13.72015496,-73.99212000
13.72271496,-73.99212000
13.72527496,-73.99212000
13.72783496,-73.99212000
13.73039496,-73.99212000
13.73295496,-73.99212000
13.73551496,-69.50591000
13.73807496,-73.99212000
13.74063496,-73.99212000
13.74319496,-73.99212000
13.74575496,-73.99212000
13.74831496,-73.99212000
13.75087496,-73.99212000
13.75343496,-73.99212000
13.75599496,-73.99212000
13.75855496,-73.99212000
13.76111496,-73.99212000
13.76367496,-73.99212000
13.76623496,-69.50591000
13.76879496,-73.99212000
13.77135496,-73.99212000
13.77391496,-73.99212000
13.77647496,-73.99212000
13.77903496,-73.99212000
13.78159496,-73.99212000
13.78415496,-73.99212000
13.78671496,-73.99212000
13.78927496,-69.50591000
13.79183496,-73.99212000
13.79439496,-73.99212000
13.79695496,-73.99212000
13.79951496,-73.99212000
13.80207496,-73.99212000
13.80463496,-73.99212000
13.80719496,-73.99212000
13.80975496,-78.46308000
13.81231496,-73.99212000
13.81487496,-73.99212000
13.81743496,-73.99212000
13.81999496,-78.46308000
13.82255496,-78.46308000
13.82511496,-78.46308000
13.82767496,-78.46308000
13.83023496,-73.99212000
13.83279496,-73.99212000
13.83535496,-73.99212000
13.83791496,-78.46308000
13.84047496,-73.99212000
13.84303496,-73.99212000
13.84559496,-73.99212000
13.84815496,-73.99212000
13.85071496,-78.46308000
13.85327496,-73.99212000
13.85583496,-73.99212000
13.85839496,-78.46308000
13.86095496,-78.46308000
13.86351496,-73.99212000
13.86607496,-78.46308000
13.86863496,-78.46308000
13.87119496,-73.99212000
13.87375496,-73.99212000
13.87631496,-78.46308000
13.87887496,-78.46308000
13.88143496,-73.99212000
13.88399496,-78.46308000
13.88655496,-78.46308000
13.88911496,-78.46308000
13.89167496,-78.46308000
13.89423496,-78.46308000
13.89679496,-78.46308000
13.89935496,-78.46308000
13.90191496,-73.99212000
13.90447496,-73.99212000
13.90703496,-78.46308000
13.90959496,-78.46308000
13.91215496,-73.99212000
13.91471496,-78.46308000
13.91727496,-73.99212000
13.91983496,-73.99212000
13.92239496,-73.99212000
13.92495496,-78.46308000
13.92751496,-78.46308000
13.93007496,-78.46308000
13.93263496,-73.99212000
13.93519496,-78.46308000
13.93775496,-73.99212000
13.94031496,-73.99212000
13.94287496,-73.99212000
13.94543496,-73.99212000
13.94799496,-73.99212000
13.95055496,-73.99212000
13.95311496,-73.99212000
13.95567496,-73.99212000
13.95823496,-69.50591000
13.96079496,-73.99212000
13.96335496,-73.99212000
13.96591496,-73.99212000
13.96847496,-73.99212000
13.97103496,-73.99212000
13.97359496,-73.99212000
13.97615496,-73.99212000
13.97871496,-69.50591000
13.98127496,-73.99212000
13.98383496,-69.50591000
13.98639496,-73.99212000
13.98895496,-69.50591000
13.99151496,-69.50591000
13.99407496,-69.50591000
13.99663496,-69.50591000
13.99919496,-69.50591000
14.00175496,-69.50591000
14.00431496,-69.50591000
14.00687496,-69.50591000
14.00943496,-69.50591000
14.01199496,-73.99212000
14.01455496,-69.50591000
14.01711496,-69.50591000
14.01967496,-69.50591000
14.02223496,-69.50591000
14.02479496,-69.50591000
14.02735496,-69.50591000
14.02991496,-69.50591000
14.03247496,-69.50591000
14.03503496,-69.50591000
14.03759496,-69.50591000
14.04015496,-69.50591000
14.04271496,-69.50591000
14.04527496,-69.50591000
14.04783496,-69.50591000
14.05039496,-69.50591000
14.05295496,-69.50591000
14.05551496,-69.50591000
14.05807496,-69.50591000
14.06063496,-69.50591000
14.06319496,-69.50591000
14.06575496,-69.50591000
14.06831496,-69.50591000
14.07087496,-69.50591000
14.07343496,-69.50591000
14.07599496,-69.50591000
14.07855496,-69.50591000
14.08111496,-69.50591000
14.08367496,-69.50591000
14.08623496,-73.99212000
14.08879496,-73.99212000
14.09135496,-69.50591000
14.09391496,-69.50591000
14.09647496,-69.50591000
14.09903496,-69.50591000
14.10159496,-69.50591000
14.10415496,-73.99212000
14.10671496,-73.99212000
14.10927496,-69.50591000
14.11183496,-73.99212000
14.11439496,-73.99212000
14.11695496,-73.99212000
14.11951496,-73.99212000
14.12207496,-73.99212000
14.12463496,-73.99212000
14.12719496,-78.46308000
14.12975496,-73.99212000
14.13231496,-73.99212000
14.13487496,-73.99212000
14.13743496,-73.99212000
14.13999496,-73.99212000
14.14255496,-78.46308000
14.14511496,-73.99212000
14.14767496,-73.99212000
14.15023496,-78.46308000
14.15279496,-73.99212000
14.15535496,-78.46308000
14.15791496,-73.99212000
14.16047496,-78.46308000
14.16303496,-73.99212000
14.16559496,-73.99212000
14.16815496,-78.46308000
14.17071496,-78.46308000
14.17327496,-78.46308000
14.17583496,-78.46308000
14.17839496,-78.46308000
14.18095496,-78.46308000
14.18351496,-78.46308000
14.18607496,-78.46308000
14.18863496,-78.46308000
14.19119496,-78.46308000
14.19375496,-78.46308000
14.19631496,-78.46308000
14.19887496,-78.46308000
14.20143496,-78.46308000
14.20399496,-78.46308000
14.20655496,-78.46308000
14.20911496,-78.46308000
14.21167496,-78.46308000
14.21423496,-78.46308000
14.21679496,-78.46308000
14.21935496,-78.46308000
14.22191496,-78.46308000
14.22447496,-78.46308000
14.22703496,-78.46308000
14.22959496,-78.46308000
14.23215496,-78.46308000
14.23471496,-78.46308000
14.23727496,-78.46308000
14.23983496,-78.46308000
14.24239496,-78.46308000
14.24495496,-78.46308000
14.24751496,-78.46308000
14.25007496,-78.46308000
14.25263496,-78.46308000
14.25519496,-78.46308000
14.25775496,-78.46308000
14.26031496,-78.46308000
14.26287496,-78.46308000
14.26543496,-78.46308000
14.26799496,-78.46308000
14.27055496,-78.46308000
14.27311496,-78.46308000
14.27567496,-78.46308000
14.27823496,-78.46308000
14.28079496,-78.46308000
14.28335496,-78.46308000
14.28591496,-78.46308000
14.28847496,-78.46308000
14.29103496,-78.46308000
14.29359496,-78.46308000
14.29615496,-78.46308000
14.29871496,-78.46308000
14.30127496,-78.46308000
14.30383496,-78.46308000
14.30639496,-78.46308000
14.30895496,-78.46308000
14.31151496,-78.46308000
14.31407496,-78.46308000
14.31663496,-78.46308000
14.31919496,-78.46308000
14.32175496,-78.46308000
14.32431496,-78.46308000
14.32687496,-78.46308000
14.32943496,-78.46308000
14.33199496,-78.46308000
14.33455496,-78.46308000
14.33711496,-78.46308000
14.33967496,-78.46308000
14.34223496,-78.46308000
14.34479496,-78.46308000
14.34735496,-78.46308000
14.34991496,-78.46308000
14.35247496,-78.46308000
14.35503496,-78.46308000
14.35759496,-78.46308000
14.36015496,-78.46308000
14.36271496,-78.46308000
14.36527496,-78.46308000
14.36783496,-78.46308000
14.37039496,-78.46308000
14.37295496,-78.46308000
14.37551496,-78.46308000
14.37807496,-78.46308000
14.38063496,-78.46308000
14.38319496,-78.46308000
14.38575496,-78.46308000
14.38831496,-78.46308000
14.39087496,-78.46308000
14.39343496,-78.46308000
14.39599496,-78.46308000
14.39855496,-78.46308000
14.40111496,-78.46308000
14.40367496,-78.46308000
14.40623496,-78.46308000
14.40879496,-78.46308000
14.41135496,-78.46308000
14.41391496,-78.46308000
14.41647496,-78.46308000
14.41903496,-78.46308000
14.42159496,-78.46308000
14.42415496,-78.46308000
14.42671496,-78.46308000
14.42927496,-78.46308000
14.43183496,-78.46308000
14.43439496,-78.46308000
14.43695496,-78.46308000
14.43951496,-78.46308000
14.44207496,-78.46308000
14.44463496,-78.46308000
14.44719496,-78.46308000
14.44975496,-78.46308000
14.45231496,-78.46308000
14.45487496,-73.99212000
14.45743496,-78.46308000
14.45999496,-78.46308000
14.46255496,-78.46308000
14.46511496,-78.46308000
14.46767496,-78.46308000
14.47023496,-78.46308000
14.47279496,-73.99212000
14.47535496,-78.46308000
14.47791496,-78.46308000
14.48047496,-78.46308000
14.48303496,-78.46308000
14.48559496,-78.46308000
14.48815496,-78.46308000
14.49071496,-73.99212000
14.49327496,-78.46308000
14.49583496,-78.46308000
14.49839496,-78.46308000
14.50095496,-78.46308000
14.50351496,-78.46308000
14.50607496,-73.99212000
14.50863496,-78.46308000
14.51119496,-78.46308000
14.51375496,-78.46308000
14.51631496,-78.46308000
14.51887496,-78.46308000
14.52143496,-73.99212000
14.52399496,-73.99212000
14.52655496,-78.46308000
14.52911496,-78.46308000
14.53167496,-78.46308000
14.53423496,-78.46308000
14.53679496,-73.99212000
14.53935496,-78.46308000
14.54191496,-73.99212000
14.54447496,-78.46308000
14.54703496,-78.46308000
14.54959496,-78.46308000
14.55215496,-78.46308000
14.55471496,-78.46308000
14.55727496,-78.46308000
14.55983496,-73.99212000
14.56239496,-78.46308000
14.56495496,-78.46308000
14.56751496,-78.46308000
14.57007496,-78.46308000
14.57263496,-78.46308000
14.57519496,-78.46308000
14.57775496,-78.46308000
14.58031496,-78.46308000
14.58287496,-73.99212000
14.58543496,-78.46308000
14.58799496,-78.46308000
14.59055496,-78.46308000
14.59311496,-78.46308000
14.59567496,-78.46308000
14.59823496,-78.46308000
14.60079496,-78.46308000
14.60335496,-78.46308000
14.60591496,-78.46308000
14.60847496,-78.46308000
14.61103496,-78.46308000
14.61359496,-78.46308000
14.61615496,-78.46308000
14.61871496,-78.46308000
14.62127496,-73.99212000
14.62383496,-78.46308000
14.62639496,-78.46308000
14.62895496,-78.46308000
14.63151496,-78.46308000
14.63407496,-78.46308000
14.63663496,-78.46308000
14.63919496,-78.46308000
14.64175496,-78.46308000
14.64431496,-78.46308000
14.64687496,-78.46308000
14.64943496,-78.46308000
14.65199496,-78.46308000
14.65455496,-78.46308000
14.65711496,-78.46308000
14.65967496,-78.46308000
14.66223496,-78.46308000
14.66479496,-78.46308000
14.66735496,-78.46308000
14.66991496,-78.46308000
14.67247496,-78.46308000
14.67503496,-78.46308000
14.67759496,-78.46308000
14.68015496,-78.46308000
14.68271496,-78.46308000
14.68527496,-78.46308000
14.68783496,-78.46308000
14.69039496,-78.46308000
14.69295496,-78.46308000
14.69551496,-78.46308000
14.69807496,-78.46308000
14.70063496,-78.46308000
14.70319496,-78.46308000
14.70575496,-78.46308000
14.70831496,-78.46308000
14.71087496,-78.46308000
14.71343496,-78.46308000
14.71599496,-78.46308000
14.71855496,-78.46308000
14.72111496,-78.46308000
14.72367496,-78.46308000
14.72623496,-78.46308000
14.72879496,-78.46308000
14.73135496,-78.46308000
14.73391496,-78.46308000
14.73647496,-78.46308000
14.73903496,-78.46308000
14.74159496,-78.46308000
14.74415496,-78.46308000
14.74671496,-78.46308000
14.74927496,-78.46308000
14.75183496,-78.46308000
14.75439496,-78.46308000
14.75695496,-78.46308000
14.75951496,-78.46308000
14.76207496,-78.46308000
14.76463496,-78.46308000
14.76719496,-78.46308000
14.76975496,-78.46308000
14.77231496,-78.46308000
14.77487496,-78.46308000
14.77743496,-78.46308000
14.77999496,-78.46308000
14.78255495,-78.46308000
14.78511495,-78.46308000
14.78767495,-78.46308000
14.79023495,-78.46308000
14.79279495,-78.46308000
14.79535495,-78.46308000
14.79791495,-78.46308000
14.80047495,-78.46308000
14.80303495,-78.46308000
14.80559495,-78.46308000
14.80815495,-78.46308000
14.81071495,-78.46308000
14.81327495,-78.46308000
14.81583495,-78.46308000
14.81839495,-78.46308000
14.82095495,-78.46308000
14.82351495,-78.46308000
14.82607495,-78.46308000
14.82863495,-78.46308000
14.83119495,-78.46308000
14.83375495,-78.46308000
14.83631495,-78.46308000
14.83887495,-78.46308000
14.84143495,-78.46308000
14.84399495,-78.46308000
14.84655495,-78.46308000
14.84911495,-78.46308000
14.85167495,-78.46308000
14.85423495,-78.46308000
14.85679495,-78.46308000
14.85935495,-78.46308000
14.86191495,-78.46308000
14.86447495,-78.46308000
14.86703495,-78.46308000
14.86959495,-78.46308000
14.87215495,-78.46308000
14.87471495,-78.46308000
14.87727495,-78.46308000
14.87983495,-78.46308000
14.88239495,-78.46308000
14.88495495,-78.46308000
14.88751495,-78.46308000
14.89007495,-78.46308000
14.89263495,-78.46308000
14.89519495,-78.46308000
14.89775495,-78.46308000
14.90031495,-78.46308000
14.90287495,-78.46308000
14.90543495,-78.46308000
14.90799495,-78.46308000
14.91055495,-78.46308000
14.91311495,-78.46308000
14.91567495,-78.46308000
14.91823495,-78.46308000
14.92079495,-78.46308000
14.92335495,-78.46308000
14.92591495,-78.46308000
14.92847495,-78.46308000
14.93103495,-78.46308000
14.93359495,-78.46308000
14.93615495,-78.46308000
14.93871495,-78.46308000
14.94127495,-78.46308000
14.94383495,-78.46308000
14.94639495,-78.46308000
14.94895495,-78.46308000
14.95151495,-78.46308000
14.95407495,-78.46308000
14.95663495,-78.46308000
14.95919495,-78.46308000
14.96175495,-78.46308000
14.96431495,-78.46308000
14.96687495,-78.46308000
14.96943495,-78.46308000
14.97199495,-78.46308000
14.97455495,-78.46308000
14.97711495,-78.46308000
14.97967495,-78.46308000
14.98223495,-78.46308000
14.98479495,-78.46308000
14.98735495,-78.46308000
14.98991495,-78.46308000
14.99247495,-78.46308000
14.99503495,-78.46308000
14.99759495,-78.46308000
15.00015495,-78.46308000
15.00271495,-78.46308000
15.00527495,-78.46308000
15.00783495,-73.99212000
15.01039495,-73.99212000
15.01295495,-78.46308000
15.01551495,-78.46308000
15.01807495,-78.46308000
15.02063495,-73.99212000
15.02319495,-78.46308000
15.02575495,-78.46308000
15.02831495,-73.99212000
15.03087495,-78.46308000
15.03343495,-78.46308000
15.03599495,-78.46308000
15.03855495,-78.46308000
15.04111495,-78.46308000
15.04367495,-78.46308000
15.04623495,-73.99212000
15.04879495,-78.46308000
15.05135495,-78.46308000
15.05391495,-73.99212000
15.05647495,-78.46308000
15.05903495,-78.46308000
15.06159495,-73.99212000
15.06415495,-78.46308000
15.06671495,-78.46308000
15.06927495,-78.46308000
15.07183495,-78.46308000
15.07439495,-78.46308000
15.07695495,-78.46308000
15.07951495,-78.46308000
15.08207495,-78.46308000
15.08463495,-73.99212000
15.08719495,-78.46308000
15.08975495,-78.46308000
15.09231495,-78.46308000
15.09487495,-78.46308000
15.09743495,-78.46308000
15.09999495,-78.46308000
15.10255495,-78.46308000
15.10511495,-78.46308000
15.10767495,-73.99212000
15.11023495,-78.46308000
15.11279495,-78.46308000
15.11535495,-78.46308000
15.11791495,-78.46308000
15.12047495,-73.99212000
15.12303495,-73.99212000
15.12559495,-73.99212000
15.12815495,-78.46308000
15.13071495,-78.46308000
15.13327495,-73.99212000
15.13583495,-73.99212000
15.13839495,-78.46308000
15.14095495,-78.46308000
15.14351495,-78.46308000
15.14607495,-78.46308000
15.14863495,-78.46308000
15.15119495,-78.46308000
15.15375495,-78.46308000
15.15631495,-78.46308000
15.15887495,-73.99212000
15.16143495,-78.46308000
15.16399495,-78.46308000
15.16655495,-73.99212000
15.16911495,-73.99212000
15.17167495,-73.99212000
15.17423495,-73.99212000
15.17679495,-73.99212000
15.17935495,-73.99212000
15.18191495,-73.99212000
15.18447495,-73.99212000
15.18703495,-73.99212000
15.18959495,-78.46308000
15.19215495,-73.99212000
15.19471495,-78.46308000
15.19727495,-73.99212000
15.19983495,-78.46308000
15.20239495,-73.99212000
15.20495495,-73.99212000
15.20751495,-73.99212000
15.21007495,-73.99212000
15.21263495,-73.99212000
15.21519495,-73.99212000
15.21775495,-78.46308000
15.22031495,-73.99212000
15.22287495,-73.99212000
15.22543495,-73.99212000
15.22799495,-73.99212000
15.23055495,-73.99212000
15.23311495,-73.99212000
15.23567495,-73.99212000
15.23823495,-73.99212000
15.24079495,-73.99212000
15.24335495,-73.99212000
15.24591495,-73.99212000
15.24847495,-73.99212000
15.25103495,-73.99212000
15.25359495,-73.99212000
15.25615495,-73.99212000
15.25871495,-73.99212000
15.26127495,-78.46308000
15.26383495,-73.99212000
15.26639495,-73.99212000
15.26895495,-73.99212000
15.27151495,-78.46308000
15.27407495,-78.46308000
15.27663495,-73.99212000
15.27919495,-73.99212000
15.28175495,-73.99212000
15.28431495,-73.99212000
15.28687495,-78.46308000
15.28943495,-73.99212000
15.29199495,-78.46308000
15.29455495,-78.46308000
15.29711495,-73.99212000
15.29967495,-73.99212000
15.30223495,-78.46308000
15.30479495,-73.99212000
15.30735495,-78.46308000
15.30991495,-73.99212000
15.31247495,-78.46308000
15.31503495,-78.46308000
15.31759495,-78.46308000
15.32015495,-73.99212000
15.32271495,-73.99212000
15.32527495,-78.46308000
15.32783495,-78.46308000
15.33039495,-78.46308000
15.33295495,-78.46308000
15.33551495,-78.46308000
15.33807495,-73.99212000
15.34063495,-78.46308000
15.34319495,-78.46308000
15.34575495,-78.46308000
15.34831495,-78.46308000
15.35087495,-73.99212000
15.35343495,-78.46308000
15.35599495,-73.99212000
15.35855495,-73.99212000
15.36111495,-78.46308000
15.36367495,-78.46308000
15.36623495,-78.46308000
15.36879495,-78.46308000
15.37135495,-78.46308000
15.37391495,-73.99212000
15.37647495,-78.46308000
15.37903495,-78.46308000
15.38159495,-78.46308000
15.38415495,-78.46308000
15.38671495,-78.46308000
15.38927495,-78.46308000
15.39183495,-78.46308000
15.39439495,-78.46308000
15.39695495,-78.46308000
15.39951495,-78.46308000
15.40207495,-78.46308000
15.40463495,-78.46308000
15.40719495,-78.46308000
15.40975495,-78.46308000
15.41231495,-78.46308000
15.41487495,-78.46308000
15.41743495,-78.46308000
15.41999495,-78.46308000
15.42255495,-78.46308000
15.42511495,-78.46308000
15.42767495,-78.46308000
15.43023495,-78.46308000
15.43279495,-78.46308000
15.43535495,-78.46308000
15.43791495,-78.46308000
15.44047495,-78.46308000
15.44303495,-78.46308000
15.44559495,-78.46308000
15.44815495,-78.46308000
15.45071495,-78.46308000
15.45327495,-78.46308000
15.45583495,-78.46308000
15.45839495,-78.46308000
15.46095495,-78.46308000
15.46351495,-78.46308000
15.46607495,-78.46308000
15.46863495,-78.46308000
15.47119495,-78.46308000
15.47375495,-78.46308000
15.47631495,-78.46308000
15.47887495,-78.46308000
15.48143495,-78.46308000
15.48399495,-78.46308000
15.48655495,-78.46308000
15.48911495,-78.46308000
15.49167495,-78.46308000
15.49423495,-78.46308000
15.49679495,-78.46308000
15.49935495,-78.46308000
15.50191495,-78.46308000
15.50447495,-78.46308000
15.50703495,-78.46308000
15.50959495,-78.46308000
15.51215495,-78.46308000
15.51471495,-78.46308000
15.51727495,-78.46308000
15.51983495,-78.46308000
15.52239495,-78.46308000
15.52495495,-78.46308000
15.52751495,-78.46308000
15.53007495,-78.46308000
15.53263495,-78.46308000
15.53519495,-78.46308000
15.53775495,-78.46308000
15.54031495,-78.46308000
15.54287495,-78.46308000
15.54543495,-78.46308000
15.54799495,-78.46308000
15.55055495,-78.46308000
15.55311495,-78.46308000
15.55567495,-78.46308000
15.55823495,-78.46308000
15.56079495,-78.46308000
15.56335495,-78.46308000
15.56591495,-78.46308000
15.56847495,-78.46308000
15.57103495,-78.46308000
15.57359495,-78.46308000
15.57615495,-78.46308000
15.57871495,-78.46308000
15.58127495,-78.46308000
15.58383495,-78.46308000
15.58639495,-78.46308000
15.58895495,-78.46308000
15.59151495,-78.46308000
15.59407495,-78.46308000
15.59663495,-78.46308000
15.59919495,-78.46308000
15.60175495,-78.46308000
15.60431495,-78.46308000
15.60687495,-78.46308000
15.60943495,-78.46308000
15.61199495,-78.46308000
15.61455495,-78.46308000
15.61711495,-78.46308000
15.61967495,-78.46308000
15.62223495,-78.46308000
15.62479495,-78.46308000
15.62735495,-73.99212000
15.62991495,-78.46308000
15.63247495,-78.46308000
15.63503495,-78.46308000
15.63759495,-78.46308000
15.64015495,-78.46308000
15.64271495,-78.46308000
15.64527495,-78.46308000
15.64783495,-78.46308000
15.65039495,-78.46308000
15.65295495,-78.46308000
15.65551495,-78.46308000
15.65807495,-78.46308000
15.66063495,-78.46308000
15.66319495,-78.46308000
15.66575495,-78.46308000
15.66831495,-78.46308000
15.67087495,-78.46308000
15.67343495,-78.46308000
15.67599495,-78.46308000
15.67855495,-78.46308000
15.68111495,-73.99212000
15.68367495,-78.46308000
15.68623495,-78.46308000
15.68879495,-78.46308000
15.69135495,-78.46308000
15.69391495,-78.46308000
15.69647495,-78.46308000
15.69903495,-78.46308000
15.70159495,-78.46308000
15.70415495,-78.46308000
15.70671495,-78.46308000
15.70927495,-78.46308000
15.71183495,-78.46308000
15.71439495,-73.99212000
15.71695495,-78.46308000
15.71951495,-73.99212000
15.72207495,-78.46308000
15.72463495,-78.46308000
15.72719495,-78.46308000
15.72975495,-78.46308000
15.73231495,-78.46308000
15.73487495,-78.46308000
15.73743495,-78.46308000
15.73999495,-78.46308000
15.74255495,-78.46308000
15.74511495,-78.46308000
15.74767495,-78.46308000
15.75023495,-73.99212000
15.75279495,-78.46308000
15.75535495,-73.99212000
15.75791495,-78.46308000
15.76047495,-73.99212000
15.76303495,-78.46308000
15.76559495,-78.46308000
15.76815495,-73.99212000
15.77071495,-78.46308000
15.77327495,-78.46308000
15.77583495,-78.46308000
15.77839495,-78.46308000
15.78095495,-78.46308000
15.78351495,-78.46308000
15.78607495,-78.46308000
15.78863495,-78.46308000
15.79119495,-78.46308000
15.79375495,-78.46308000
15.79631495,-78.46308000
15.79887495,-73.99212000
15.80143495,-78.46308000
15.80399495,-78.46308000
15.80655495,-78.46308000
15.80911495,-78.46308000
15.81167495,-78.46308000
15.81423495,-78.46308000
15.81679495,-78.46308000
15.81935495,-78.46308000
15.82191495,-78.46308000
15.82447495,-78.46308000
15.82703495,-78.46308000
15.82959495,-78.46308000
15.83215495,-73.99212000
15.83471495,-78.46308000
15.83727495,-73.99212000
15.83983495,-78.46308000
15.84239495,-78.46308000
15.84495495,-78.46308000
15.84751495,-78.46308000
15.85007495,-78.46308000
15.85263495,-78.46308000
15.85519495,-78.46308000
15.85775495,-78.46308000
15.86031495,-78.46308000
15.86287495,-78.46308000
15.86543495,-78.46308000
15.86799495,-78.46308000
15.87055495,-78.46308000
15.87311495,-78.46308000
15.87567495,-78.46308000
15.87823495,-78.46308000
15.88079495,-78.46308000
15.88335495,-78.46308000
15.88591495,-78.46308000
15.88847495,-78.46308000
15.89103495,-73.99212000
15.89359495,-78.46308000
15.89615495,-78.46308000
15.89871495,-78.46308000
15.90127495,-78.46308000
15.90383495,-78.46308000
15.90639495,-78.46308000
15.90895495,-78.46308000
15.91151495,-78.46308000
15.91407495,-78.46308000
15.91663495,-78.46308000
15.91919495,-78.46308000
15.92175495,-78.46308000
15.92431495,-78.46308000
15.92687495,-78.46308000
15.92943495,-78.46308000
15.93199495,-78.46308000
15.93455495,-73.99212000
15.93711495,-78.46308000
15.93967495,-78.46308000
15.94223495,-73.99212000
15.94479495,-78.46308000
15.94735495,-78.46308000
15.94991495,-78.46308000
15.95247495,-78.46308000
15.95503495,-78.46308000
15.95759495,-78.46308000
15.96015495,-73.99212000
15.96271495,-78.46308000
15.96527495,-78.46308000
15.96783495,-78.46308000
15.97039495,-78.46308000
15.97295495,-78.46308000
15.97551495,-78.46308000
15.97807495,-78.46308000
15.98063495,-78.46308000
15.98319495,-78.46308000
15.98575495,-78.46308000
15.98831495,-78.46308000
15.99087495,-78.46308000
15.99343495,-78.46308000
15.99599495,-73.99212000
15.99855495,-78.46308000
16.00111495,-78.46308000
16.00367495,-73.99212000
16.00623495,-78.46308000
16.00879495,-78.46308000
16.01135495,-78.46308000
16.01391495,-73.99212000
16.01647495,-78.46308000
16.01903495,-78.46308000
16.02159495,-78.46308000
16.02415495,-78.46308000
16.02671495,-78.46308000
16.02927495,-78.46308000
16.03183495,-78.46308000
16.03439495,-73.99212000
16.03695495,-78.46308000
16.03951495,-78.46308000
16.04207495,-78.46308000
16.04463495,-73.99212000
16.04719495,-78.46308000
16.04975495,-78.46308000
16.05231495,-73.99212000
16.05487495,-73.99212000
16.05743495,-73.99212000
16.05999495,-78.46308000
16.06255495,-78.46308000
16.06511495,-78.46308000
16.06767495,-73.99212000
16.07023495,-78.46308000
16.07279495,-78.46308000
16.07535495,-73.99212000
16.07791495,-73.99212000
16.08047495,-78.46308000
16.08303495,-78.46308000
16.08559495,-73.99212000
16.08815495,-73.99212000
16.09071495,-78.46308000
16.09327495,-78.46308000
16.09583495,-78.46308000
16.09839495,-78.46308000
16.10095495,-73.99212000
16.10351495,-73.99212000
16.10607495,-78.46308000
16.10863495,-73.99212000
16.11119495,-73.99212000
16.11375495,-78.46308000
16.11631495,-78.46308000
16.11887495,-73.99212000
16.12143495,-73.99212000
16.12399495,-78.46308000
16.12655495,-78.46308000
16.12911495,-73.99212000
16.13167495,-73.99212000
16.13423495,-78.46308000
16.13679495,-73.99212000
16.13935495,-73.99212000
16.14191495,-73.99212000
16.14447495,-73.99212000
16.14703495,-73.99212000
16.14959495,-73.99212000
16.15215495,-73.99212000
16.15471495,-73.99212000
16.15727495,-73.99212000
16.15983495,-73.99212000
16.16239495,-73.99212000
16.16495495,-73.99212000
16.16751495,-73.99212000
16.17007495,-73.99212000
16.17263495,-73.99212000
16.17519495,-73.99212000
16.17775495,-73.99212000
16.18031495,-73.99212000
16.18287495,-69.50591000
16.18543495,-73.99212000
16.18799495,-73.99212000
16.19055495,-73.99212000
16.19311495,-73.99212000
16.19567495,-73.99212000
16.19823495,-78.46308000
16.20079495,-73.99212000
16.20335495,-73.99212000
16.20591495,-73.99212000
16.20847495,-78.46308000
16.21103495,-78.46308000
16.21359495,-73.99212000
16.21615495,-73.99212000
16.21871495,-73.99212000
16.22127495,-73.99212000
16.22383495,-73.99212000
16.22639495,-73.99212000
16.22895495,-73.99212000
16.23151495,-73.99212000
16.23407495,-78.46308000
16.23663495,-73.99212000
16.23919495,-73.99212000
16.24175495,-73.99212000
16.24431495,-73.99212000
16.24687495,-73.99212000
16.24943495,-73.99212000
16.25199495,-73.99212000
16.25455495,-73.99212000
16.25711495,-78.46308000
16.25967495,-73.99212000
16.26223495,-73.99212000
16.26479495,-73.99212000
16.26735495,-73.99212000
16.26991495,-73.99212000
16.27247495,-78.46308000
16.27503495,-78.46308000
16.27759495,-73.99212000
16.28015495,-78.46308000
16.28271495,-73.99212000
16.28527495,-73.99212000
16.28783495,-73.99212000
16.29039495,-73.99212000
16.29295495,-73.99212000
16.29551495,-73.99212000
16.29807495,-73.99212000
16.30063495,-73.99212000
16.30319495,-73.99212000
16.30575495,-73.99212000
16.30831495,-73.99212000
16.31087495,-73.99212000
16.31343495,-73.99212000
16.31599495,-73.99212000
16.31855495,-73.99212000
16.32111495,-73.99212000
16.32367495,-73.99212000
16.32623495,-73.99212000
16.32879495,-78.46308000
16.33135495,-78.46308000
16.33391495,-73.99212000
16.33647495,-69.50591000
16.33903495,-73.99212000
16.34159495,-73.99212000
16.34415495,-73.99212000
16.34671495,-73.99212000
16.34927495,-73.99212000
16.35183495,-78.46308000
16.35439495,-73.99212000
16.35695495,-73.99212000
16.35951495,-73.99212000
16.36207495,-73.99212000
16.36463495,-73.99212000
16.36719495,-73.99212000
16.36975495,-73.99212000
16.37231495,-69.50591000
16.37487495,-73.99212000
16.37743495,-73.99212000
16.37999495,-73.99212000
16.38255495,-69.50591000
16.38511495,-73.99212000
16.38767495,-73.99212000
16.39023495,-73.99212000
16.39279495,-73.99212000
16.39535495,-73.99212000
16.39791495,-73.99212000
16.40047495,-73.99212000
16.40303495,-73.99212000
16.40559495,-73.99212000
16.40815495,-78.46308000
16.41071495,-73.99212000
16.41327495,-73.99212000
16.41583495,-73.99212000
16.41839495,-73.99212000
16.42095495,-73.99212000
16.42351495,-73.99212000
16.42607495,-73.99212000
16.42863494,-73.99212000
16.43119494,-73.99212000
16.43375494,-78.46308000
16.43631494,-69.50591000
16.43887494,-73.99212000
16.44143494,-73.99212000
16.44399494,-73.99212000
16.44655494,-73.99212000
16.44911494,-78.46308000
16.45167494,-78.46308000
16.45423494,-73.99212000
16.45679494,-78.46308000
16.45935494,-73.99212000
16.46191494,-73.99212000
16.46447494,-73.99212000
16.46703494,-73.99212000
16.46959494,-78.46308000
16.47215494,-73.99212000
16.47471494,-73.99212000
16.47727494,-78.46308000
16.47983494,-73.99212000
16.48239494,-78.46308000
16.48495494,-73.99212000
16.48751494,-73.99212000
16.49007494,-78.46308000
16.49263494,-73.99212000
16.49519494,-73.99212000
16.49775494,-73.99212000
16.50031494,-78.46308000
16.50287494,-78.46308000
16.50543494,-78.46308000
16.50799494,-78.46308000
16.51055494,-78.46308000
16.51311494,-78.46308000
16.51567494,-78.46308000
16.51823494,-78.46308000
16.52079494,-78.46308000
16.52335494,-78.46308000
16.52591494,-78.46308000
16.52847494,-78.46308000
16.53103494,-78.46308000
16.53359494,-78.46308000
16.53615494,-78.46308000
16.53871494,-78.46308000
16.54127494,-78.46308000
16.54383494,-78.46308000
16.54639494,-78.46308000
16.54895494,-78.46308000
16.55151494,-78.46308000
16.55407494,-78.46308000
16.55663494,-78.46308000
16.55919494,-78.46308000
16.56175494,-78.46308000
16.56431494,-78.46308000
16.56687494,-78.46308000
16.56943494,-78.46308000
16.57199494,-78.46308000
16.57455494,-78.46308000
16.57711494,-78.46308000
16.57967494,-78.46308000
16.58223494,-78.46308000
16.58479494,-78.46308000
16.58735494,-78.46308000
16.58991494,-78.46308000
16.59247494,-78.46308000
16.59503494,-78.46308000
16.59759494,-78.46308000
16.60015494,-78.46308000
16.60271494,-78.46308000
16.60527494,-78.46308000
16.60783494,-78.46308000
16.61039494,-78.46308000
16.61295494,-78.46308000
16.61551494,-78.46308000
16.61807494,-78.46308000
16.62063494,-78.46308000
16.62319494,-78.46308000
16.62575494,-78.46308000
16.62831494,-78.46308000
16.63087494,-78.46308000
16.63343494,-78.46308000
16.63599494,-78.46308000
16.63855494,-78.46308000
16.64111494,-78.46308000
16.64367494,-78.46308000
16.64623494,-78.46308000
16.64879494,-78.46308000
16.65135494,-78.46308000
16.65391494,-78.46308000
16.65647494,-78.46308000
16.65903494,-78.46308000
16.66159494,-78.46308000
16.66415494,-78.46308000
16.66671494,-78.46308000
16.66927494,-78.46308000
16.67183494,-78.46308000
16.67439494,-78.46308000
16.67695494,-78.46308000
16.67951494,-78.46308000
16.68207494,-78.46308000
16.68463494,-78.46308000
16.68719494,-78.46308000
16.68975494,-78.46308000
16.69231494,-78.46308000
16.69487494,-78.46308000
16.69743494,-78.46308000
16.69999494,-78.46308000
16.70255494,-78.46308000
16.70511494,-78.46308000
16.70767494,-78.46308000
16.71023494,-78.46308000
16.71279494,-78.46308000
16.71535494,-78.46308000
16.71791494,-78.46308000
16.72047494,-78.46308000
16.72303494,-78.46308000
16.72559494,-78.46308000
16.72815494,-78.46308000
16.73071494,-78.46308000
16.73327494,-78.46308000
16.73583494,-78.46308000
16.73839494,-78.46308000
16.74095494,-78.46308000
16.74351494,-78.46308000
16.74607494,-78.46308000
16.74863494,-78.46308000
16.75119494,-78.46308000
16.75375494,-78.46308000
16.75631494,-78.46308000
16.75887494,-78.46308000
16.76143494,-78.46308000
16.76399494,-78.46308000
16.76655494,-78.46308000
16.76911494,-78.46308000
16.77167494,-78.46308000
16.77423494,-78.46308000
16.77679494,-78.46308000
16.77935494,-78.46308000
16.78191494,-78.46308000
16.78447494,-78.46308000
16.78703494,-78.46308000
16.78959494,-78.46308000
16.79215494,-78.46308000
16.79471494,-78.46308000
16.79727494,-78.46308000
16.79983494,-78.46308000
16.80239494,-78.46308000
16.80495494,-78.46308000
16.80751494,-78.46308000
16.81007494,-78.46308000
16.81263494,-78.46308000
16.81519494,-78.46308000
16.81775494,-78.46308000
16.82031494,-78.46308000
16.82287494,-78.46308000
16.82543494,-78.46308000
16.82799494,-78.46308000
16.83055494,-78.46308000
16.83311494,-78.46308000
16.83567494,-78.46308000
16.83823494,-78.46308000
16.84079494,-78.46308000
16.84335494,-78.46308000
16.84591494,-78.46308000
16.84847494,-78.46308000
16.85103494,-78.46308000
16.85359494,-78.46308000
16.85615494,-78.46308000
16.85871494,-78.46308000
16.86127494,-78.46308000
16.86383494,-78.46308000
16.86639494,-78.46308000
16.86895494,-78.46308000
16.87151494,-78.46308000
16.87407494,-78.46308000
16.87663494,-78.46308000
16.87919494,-78.46308000
16.88175494,-78.46308000
16.88431494,-78.46308000
16.88687494,-78.46308000
16.88943494,-78.46308000
16.89199494,-78.46308000
16.89455494,-78.46308000
16.89711494,-78.46308000
16.89967494,-78.46308000
16.90223494,-78.46308000
16.90479494,-78.46308000
16.90735494,-78.46308000
16.90991494,-78.46308000
16.91247494,-78.46308000
16.91503494,-78.46308000
16.91759494,-78.46308000
16.92015494,-78.46308000
16.92271494,-78.46308000
16.92527494,-78.46308000
16.92783494,-78.46308000
16.93039494,-78.46308000
16.93295494,-78.46308000
16.93551494,-78.46308000
16.93807494,-78.46308000
16.94063494,-78.46308000
16.94319494,-78.46308000
16.94575494,-78.46308000
16.94831494,-78.46308000
16.95087494,-78.46308000
16.95343494,-78.46308000
16.95599494,-78.46308000
16.95855494,-78.46308000
16.96111494,-78.46308000
16.96367494,-78.46308000
16.96623494,-78.46308000
16.96879494,-78.46308000
16.97135494,-78.46308000
16.97391494,-78.46308000
16.97647494,-78.46308000
16.97903494,-78.46308000
16.98159494,-78.46308000
16.98415494,-78.46308000
16.98671494,-78.46308000
16.98927494,-78.46308000
16.99183494,-78.46308000
16.99439494,-78.46308000
16.99695494,-78.46308000
16.99951494,-78.46308000
17.00207494,-78.46308000
17.00463494,-78.46308000
17.00719494,-78.46308000
17.00975494,-78.46308000
17.01231494,-78.46308000
17.01487494,-78.46308000
17.01743494,-78.46308000
17.01999494,-78.46308000
17.02255494,-78.46308000
17.02511494,-78.46308000
17.02767494,-78.46308000
17.03023494,-78.46308000
17.03279494,-78.46308000
17.03535494,-78.46308000
17.03791494,-78.46308000
17.04047494,-78.46308000
17.04303494,-78.46308000
17.04559494,-78.46308000
17.04815494,-78.46308000
17.05071494,-78.46308000
17.05327494,-78.46308000
17.05583494,-78.46308000
17.05839494,-78.46308000
17.06095494,-78.46308000
17.06351494,-78.46308000
17.06607494,-78.46308000
17.06863494,-78.46308000
17.07119494,-78.46308000
17.07375494,-78.46308000
17.07631494,-78.46308000
17.07887494,-78.46308000
17.08143494,-78.46308000
17.08399494,-78.46308000
17.08655494,-78.46308000
17.08911494,-78.46308000
17.09167494,-78.46308000
17.09423494,-78.46308000
17.09679494,-78.46308000
17.09935494,-78.46308000
17.10191494,-78.46308000
17.10447494,-78.46308000
17.10703494,-78.46308000
17.10959494,-78.46308000
17.11215494,-78.46308000
17.11471494,-78.46308000
17.11727494,-78.46308000
17.11983494,-78.46308000
17.12239494,-78.46308000
17.12495494,-78.46308000
17.12751494,-78.46308000
17.13007494,-78.46308000
17.13263494,-78.46308000
17.13519494,-78.46308000
17.13775494,-78.46308000
17.14031494,-78.46308000
17.14287494,-78.46308000
17.14543494,-78.46308000
17.14799494,-78.46308000
17.15055494,-78.46308000
17.15311494,-78.46308000
17.15567494,-78.46308000
17.15823494,-78.46308000
17.16079494,-78.46308000
17.16335494,-78.46308000
17.16591494,-78.46308000
17.16847494,-78.46308000
17.17103494,-78.46308000
17.17359494,-78.46308000
17.17615494,-78.46308000
17.17871494,-78.46308000
17.18127494,-78.46308000
17.18383494,-78.46308000
17.18639494,-78.46308000
17.18895494,-78.46308000
17.19151494,-78.46308000
17.19407494,-78.46308000
17.19663494,-78.46308000
17.19919494,-78.46308000
17.20175494,-78.46308000
17.20431494,-78.46308000
17.20687494,-78.46308000
17.20943494,-78.46308000
17.21199494,-78.46308000
17.21455494,-78.46308000
17.21711494,-78.46308000
17.21967494,-78.46308000
17.22223494,-78.46308000
17.22479494,-73.99212000
17.22735494,-78.46308000
17.22991494,-78.46308000
17.23247494,-78.46308000
17.23503494,-73.99212000
17.23759494,-73.99212000
17.24015494,-78.46308000
17.24271494,-78.46308000
17.24527494,-78.46308000
17.24783494,-78.46308000
17.25039494,-78.46308000
17.25295494,-78.46308000
17.25551494,-78.46308000
17.25807494,-78.46308000
17.26063494,-78.46308000
17.26319494,-73.99212000
17.26575494,-78.46308000
17.26831494,-78.46308000
17.27087494,-78.46308000
17.27343494,-73.99212000
17.27599494,-78.46308000
17.27855494,-78.46308000
17.28111494,-78.46308000
17.28367494,-73.99212000
17.28623494,-78.46308000
17.28879494,-73.99212000
17.29135494,-78.46308000
17.29391494,-73.99212000
17.29647494,-78.46308000
17.29903494,-78.46308000
17.30159494,-78.46308000
17.30415494,-78.46308000
17.30671494,-78.46308000
17.30927494,-78.46308000
17.31183494,-78.46308000
17.31439494,-78.46308000
17.31695494,-78.46308000
17.31951494,-78.46308000
17.32207494,-78.46308000
17.32463494,-78.46308000
17.32719494,-78.46308000
17.32975494,-78.46308000
17.33231494,-78.46308000
17.33487494,-78.46308000
17.33743494,-78.46308000
17.33999494,-78.46308000
17.34255494,-78.46308000
17.34511494,-78.46308000
17.34767494,-78.46308000
17.35023494,-78.46308000
17.35279494,-78.46308000
17.35535494,-78.46308000
17.35791494,-73.99212000
17.36047494,-78.46308000
17.36303494,-78.46308000
17.36559494,-78.46308000
17.36815494,-78.46308000
17.37071494,-78.46308000
17.37327494,-78.46308000
17.37583494,-78.46308000
17.37839494,-78.46308000
17.38095494,-78.46308000
17.38351494,-78.46308000
17.38607494,-78.46308000
17.38863494,-78.46308000
17.39119494,-73.99212000
17.39375494,-78.46308000
17.39631494,-78.46308000
17.39887494,-78.46308000
17.40143494,-78.46308000
17.40399494,-78.46308000
17.40655494,-78.46308000
17.40911494,-78.46308000
17.41167494,-78.46308000
17.41423494,-78.46308000
17.41679494,-78.46308000
17.41935494,-78.46308000
17.42191494,-78.46308000
17.42447494,-78.46308000
17.42703494,-78.46308000
17.42959494,-78.46308000
17.43215494,-78.46308000
17.43471494,-78.46308000
17.43727494,-78.46308000
17.43983494,-78.46308000
17.44239494,-78.46308000
17.44495494,-78.46308000
17.44751494,-78.46308000
17.45007494,-78.46308000
17.45263494,-78.46308000
17.45519494,-78.46308000
17.45775494,-78.46308000
17.46031494,-78.46308000
17.46287494,-78.46308000
17.46543494,-78.46308000
17.46799494,-78.46308000
17.47055494,-78.46308000
17.47311494,-78.46308000
17.47567494,-78.46308000
17.47823494,-78.46308000
17.48079494,-78.46308000
17.48335494,-78.46308000
17.48591494,-78.46308000
17.48847494,-78.46308000
17.49103494,-78.46308000
17.49359494,-78.46308000
17.49615494,-78.46308000
17.49871494,-78.46308000
17.50127494,-78.46308000
17.50383494,-78.46308000
17.50639494,-78.46308000
17.50895494,-78.46308000
17.51151494,-78.46308000
17.51407494,-78.46308000
17.51663494,-78.46308000
17.51919494,-78.46308000
17.52175494,-78.46308000
17.52431494,-78.46308000
17.52687494,-78.46308000
17.52943494,-78.46308000
17.53199494,-78.46308000
17.53455494,-78.46308000
17.53711494,-78.46308000
17.53967494,-78.46308000
17.54223494,-78.46308000
17.54479494,-78.46308000
17.54735494,-78.46308000
17.54991494,-78.46308000
17.55247494,-78.46308000
17.55503494,-78.46308000
17.55759494,-78.46308000
17.56015494,-78.46308000
17.56271494,-78.46308000
17.56527494,-78.46308000
17.56783494,-78.46308000
17.57039494,-78.46308000
17.57295494,-78.46308000
17.57551494,-78.46308000
17.57807494,-78.46308000
17.58063494,-78.46308000
17.58319494,-78.46308000
17.58575494,-78.46308000
17.58831494,-78.46308000
17.59087494,-78.46308000
17.59343494,-78.46308000
17.59599494,-78.46308000
17.59855494,-78.46308000
17.60111494,-78.46308000
17.60367494,-78.46308000
17.60623494,-78.46308000
17.60879494,-78.46308000
17.61135494,-78.46308000
17.61391494,-78.46308000
17.61647494,-78.46308000
17.61903494,-78.46308000
17.62159494,-78.46308000
17.62415494,-78.46308000
17.62671494,-78.46308000
17.62927494,-78.46308000
17.63183494,-78.46308000
17.63439494,-78.46308000
17.63695494,-78.46308000
17.63951494,-78.46308000
17.64207494,-78.46308000
17.64463494,-78.46308000
17.64719494,-78.46308000
17.64975494,-78.46308000
17.65231494,-78.46308000
17.65487494,-78.46308000
17.65743494,-78.46308000
17.65999494,-78.46308000
17.66255494,-78.46308000
17.66511494,-78.46308000
17.66767494,-78.46308000
17.67023494,-78.46308000
17.67279494,-78.46308000
17.67535494,-78.46308000
17.67791494,-78.46308000
17.68047494,-78.46308000
17.68303494,-78.46308000
17.68559494,-78.46308000
17.68815494,-78.46308000
17.69071494,-78.46308000
17.69327494,-78.46308000
17.69583494,-78.46308000
17.69839494,-78.46308000
17.70095494,-78.46308000
17.70351494,-78.46308000
17.70607494,-78.46308000
17.70863494,-78.46308000
17.71119494,-78.46308000
17.71375494,-78.46308000
17.71631494,-78.46308000
17.71887494,-78.46308000
17.72143494,-78.46308000
17.72399494,-78.46308000
17.72655494,-78.46308000
17.72911494,-78.46308000
17.73167494,-78.46308000
17.73423494,-78.46308000
17.73679494,-78.46308000
17.73935494,-78.46308000
17.74191494,-78.46308000
17.74447494,-78.46308000
17.74703494,-78.46308000
17.74959494,-78.46308000
17.75215494,-78.46308000
17.75471494,-78.46308000
17.75727494,-78.46308000
17.75983494,-78.46308000
17.76239494,-73.99212000
17.76495494,-73.99212000
17.76751494,-78.46308000
17.77007494,-78.46308000
17.77263494,-78.46308000
17.77519494,-78.46308000
17.77775494,-78.46308000
17.78031494,-78.46308000
17.78287494,-78.46308000
17.78543494,-78.46308000
17.78799494,-78.46308000
17.79055494,-78.46308000
17.79311494,-78.46308000
17.79567494,-78.46308000
17.79823494,-78.46308000
17.80079494,-78.46308000
17.80335494,-78.46308000
17.80591494,-78.46308000
17.80847494,-78.46308000
17.81103494,-78.46308000
17.81359494,-78.46308000
17.81615494,-78.46308000
17.81871494,-78.46308000
17.82127494,-78.46308000
17.82383494,-78.46308000
17.82639494,-78.46308000
17.82895494,-78.46308000
17.83151494,-78.46308000
17.83407494,-78.46308000
17.83663494,-78.46308000
17.83919494,-78.46308000
17.84175494,-78.46308000
17.84431494,-78.46308000
17.84687494,-78.46308000
17.84943494,-73.99212000
17.85199494,-78.46308000
17.85455494,-73.99212000
17.85711494,-78.46308000
17.85967494,-78.46308000
17.86223494,-78.46308000
17.86479494,-78.46308000
17.86735494,-78.46308000
17.86991494,-78.46308000
17.87247494,-73.99212000
17.87503494,-78.46308000
17.87759494,-73.99212000
17.88015494,-78.46308000
17.88271494,-78.46308000
17.88527494,-78.46308000
17.88783494,-78.46308000
17.89039494,-78.46308000
17.89295494,-78.46308000
17.89551494,-78.46308000
17.89807494,-73.99212000
17.90063494,-73.99212000
17.90319494,-73.99212000
17.90575494,-78.46308000
17.90831494,-78.46308000
17.91087494,-78.46308000
17.91343494,-78.46308000
17.91599494,-78.46308000
17.91855494,-73.99212000
17.92111494,-73.99212000
17.92367494,-78.46308000
17.92623494,-78.46308000
17.92879494,-78.46308000
17.93135494,-73.99212000
17.93391494,-78.46308000
17.93647494,-78.46308000
17.93903494,-73.99212000
17.94159494,-78.46308000
17.94415494,-78.46308000
17.94671494,-78.46308000
17.94927494,-78.46308000
17.95183494,-78.46308000
17.95439494,-78.46308000
17.95695494,-78.46308000
17.95951494,-78.46308000
17.96207494,-78.46308000
17.96463494,-78.46308000
17.96719494,-78.46308000
17.96975494,-78.46308000
17.97231494,-78.46308000
17.97487494,-78.46308000
17.97743494,-73.99212000
17.97999494,-73.99212000
17.98255494,-73.99212000
17.98511494,-73.99212000
17.98767494,-78.46308000
17.99023494,-78.46308000
17.99279494,-73.99212000
17.99535494,-78.46308000
17.99791494,-78.46308000
18.00047494,-73.99212000
18.00303494,-78.46308000
18.00559494,-73.99212000
18.00815494,-78.46308000
18.01071494,-78.46308000
18.01327494,-78.46308000
18.01583494,-78.46308000
18.01839494,-73.99212000
18.02095494,-78.46308000
18.02351494,-78.46308000
18.02607494,-73.99212000
18.02863494,-78.46308000
18.03119494,-78.46308000
18.03375494,-78.46308000
18.03631494,-78.46308000
18.03887494,-78.46308000
18.04143494,-78.46308000
18.04399494,-78.46308000
18.04655494,-78.46308000
18.04911494,-73.99212000
18.05167494,-78.46308000
18.05423494,-78.46308000
18.05679494,-78.46308000
18.05935494,-78.46308000
18.06191494,-78.46308000
18.06447494,-78.46308000
18.06703494,-78.46308000
18.06959494,-78.46308000
18.07215493,-78.46308000
18.07471493,-78.46308000
18.07727493,-78.46308000
18.07983493,-73.99212000
18.08239493,-73.99212000
18.08495493,-73.99212000
18.08751493,-78.46308000
18.09007493,-78.46308000
18.09263493,-78.46308000
18.09519493,-78.46308000
18.09775493,-78.46308000
18.10031493,-78.46308000
18.10287493,-78.46308000
18.10543493,-73.99212000
18.10799493,-78.46308000
18.11055493,-78.46308000
18.11311493,-78.46308000
18.11567493,-78.46308000
18.11823493,-73.99212000
18.12079493,-78.46308000
18.12335493,-73.99212000
18.12591493,-78.46308000
18.12847493,-73.99212000
18.13103493,-73.99212000
18.13359493,-73.99212000
18.13615493,-78.46308000
18.13871493,-73.99212000
18.14127493,-73.99212000
18.14383493,-78.46308000
18.14639493,-78.46308000
18.14895493,-78.46308000
18.15151493,-78.46308000
18.15407493,-73.99212000
18.15663493,-78.46308000
18.15919493,-73.99212000
18.16175493,-78.46308000
18.16431493,-73.99212000
18.16687493,-78.46308000
18.16943493,-78.46308000
18.17199493,-73.99212000
18.17455493,-73.99212000
18.17711493,-78.46308000
18.17967493,-78.46308000
18.18223493,-78.46308000
18.18479493,-78.46308000
18.18735493,-73.99212000
18.18991493,-78.46308000
18.19247493,-73.99212000
18.19503493,-73.99212000
18.19759493,-78.46308000
18.20015493,-78.46308000
18.20271493,-78.46308000
18.20527493,-73.99212000
18.20783493,-73.99212000
18.21039493,-78.46308000
18.21295493,-78.46308000
18.21551493,-78.46308000
18.21807493,-73.99212000
18.22063493,-73.99212000
18.22319493,-78.46308000
18.22575493,-78.46308000
18.22831493,-78.46308000
18.23087493,-78.46308000
18.23343493,-78.46308000
18.23599493,-78.46308000
18.23855493,-73.99212000
18.24111493,-73.99212000
18.24367493,-78.46308000
18.24623493,-73.99212000
18.24879493,-78.46308000
18.25135493,-78.46308000
18.25391493,-78.46308000
18.25647493,-73.99212000
18.25903493,-78.46308000
18.26159493,-78.46308000
18.26415493,-78.46308000
18.26671493,-73.99212000
18.26927493,-78.46308000
18.27183493,-73.99212000
18.27439493,-78.46308000
18.27695493,-78.46308000
18.27951493,-73.99212000
18.28207493,-78.46308000
18.28463493,-78.46308000
18.28719493,-73.99212000
18.28975493,-78.46308000
18.29231493,-78.46308000
18.29487493,-78.46308000
18.29743493,-78.46308000
18.29999493,-73.99212000
18.30255493,-78.46308000
18.30511493,-78.46308000
18.30767493,-78.46308000
18.31023493,-78.46308000
18.31279493,-73.99212000
18.31535493,-78.46308000
18.31791493,-78.46308000
18.32047493,-78.46308000
18.32303493,-78.46308000
18.32559493,-73.99212000
18.32815493,-78.46308000
18.33071493,-78.46308000
18.33327493,-78.46308000
18.33583493,-78.46308000
18.33839493,-78.46308000
18.34095493,-78.46308000
18.34351493,-78.46308000
18.34607493,-73.99212000
18.34863493,-78.46308000
18.35119493,-78.46308000
18.35375493,-78.46308000
18.35631493,-78.46308000
18.35887493,-78.46308000
18.36143493,-78.46308000
18.36399493,-78.46308000
18.36655493,-73.99212000
18.36911493,-78.46308000
18.37167493,-78.46308000
18.37423493,-78.46308000
18.37679493,-78.46308000
18.37935493,-78.46308000
18.38191493,-78.46308000
18.38447493,-78.46308000
18.38703493,-78.46308000
18.38959493,-78.46308000
18.39215493,-78.46308000
18.39471493,-73.99212000
18.39727493,-78.46308000
18.39983493,-78.46308000
18.40239493,-78.46308000
18.40495493,-78.46308000
18.40751493,-78.46308000
18.41007493,-78.46308000
18.41263493,-78.46308000
18.41519493,-78.46308000
18.41775493,-78.46308000
18.42031493,-78.46308000
18.42287493,-78.46308000
18.42543493,-78.46308000
18.42799493,-73.99212000
18.43055493,-73.99212000
18.43311493,-78.46308000
18.43567493,-78.46308000
18.43823493,-78.46308000
18.44079493,-78.46308000
18.44335493,-78.46308000
18.44591493,-78.46308000
18.44847493,-78.46308000
18.45103493,-78.46308000
18.45359493,-78.46308000
18.45615493,-78.46308000
18.45871493,-78.46308000
18.46127493,-78.46308000
18.46383493,-78.46308000
18.46639493,-78.46308000
18.46895493,-78.46308000
18.47151493,-78.46308000
18.47407493,-73.99212000
18.47663493,-78.46308000
18.47919493,-78.46308000
18.48175493,-78.46308000
18.48431493,-78.46308000
18.48687493,-78.46308000
18.48943493,-78.46308000
18.49199493,-78.46308000
18.49455493,-78.46308000
18.49711493,-78.46308000
18.49967493,-73.99212000
18.50223493,-78.46308000
18.50479493,-78.46308000
18.50735493,-78.46308000
18.50991493,-78.46308000
18.51247493,-78.46308000
18.51503493,-78.46308000
18.51759493,-78.46308000
18.52015493,-78.46308000
18.52271493,-78.46308000
18.52527493,-78.46308000
18.52783493,-78.46308000
18.53039493,-78.46308000
18.53295493,-78.46308000
18.53551493,-78.46308000
18.53807493,-78.46308000
18.54063493,-78.46308000
18.54319493,-78.46308000
18.54575493,-78.46308000
18.54831493,-78.46308000
18.55087493,-78.46308000
18.55343493,-78.46308000
18.55599493,-78.46308000
18.55855493,-78.46308000
18.56111493,-78.46308000
18.56367493,-78.46308000
18.56623493,-78.46308000
18.56879493,-78.46308000
18.57135493,-78.46308000
18.57391493,-78.46308000
18.57647493,-78.46308000
18.57903493,-78.46308000
18.58159493,-78.46308000
18.58415493,-78.46308000
18.58671493,-78.46308000
18.58927493,-78.46308000
18.59183493,-78.46308000
18.59439493,-78.46308000
18.59695493,-78.46308000
18.59951493,-78.46308000
18.60207493,-78.46308000
18.60463493,-78.46308000
18.60719493,-78.46308000
18.60975493,-78.46308000
18.61231493,-78.46308000
18.61487493,-78.46308000
18.61743493,-78.46308000
18.61999493,-78.46308000
18.62255493,-78.46308000
18.62511493,-78.46308000
18.62767493,-78.46308000
18.63023493,-78.46308000
18.63279493,-78.46308000
18.63535493,-78.46308000
18.63791493,-78.46308000
18.64047493,-78.46308000
18.64303493,-78.46308000
18.64559493,-78.46308000
18.64815493,-78.46308000
18.65071493,-78.46308000
18.65327493,-78.46308000
18.65583493,-78.46308000
18.65839493,-78.46308000
18.66095493,-78.46308000
18.66351493,-78.46308000
18.66607493,-78.46308000
18.66863493,-78.46308000
18.67119493,-78.46308000
18.67375493,-78.46308000
18.67631493,-78.46308000
18.67887493,-78.46308000
18.68143493,-78.46308000
