Time,Invert B
(ms),(mV)

-1.32213405,-73.99212000
-1.31957405,-73.99212000
-1.31701405,-78.46308000
-1.31445405,-73.99212000
-1.31189405,-73.99212000
-1.30933405,-73.99212000
-1.30677405,-78.46308000
-1.30421405,-73.99212000
-1.30165405,-73.99212000
-1.29909405,-73.99212000
-1.29653405,-73.99212000
-1.29397405,-73.99212000
-1.29141405,-73.99212000
-1.28885405,-78.46308000
-1.28629405,-73.99212000
-1.28373405,-73.99212000
-1.28117405,-78.46308000
-1.27861405,-73.99212000
-1.27605405,-73.99212000
-1.27349405,-73.99212000
-1.27093405,-73.99212000
-1.26837405,-78.46308000
-1.26581405,-73.99212000
-1.26325405,-73.99212000
-1.26069405,-78.46308000
-1.25813405,-73.99212000
-1.25557405,-78.46308000
-1.25301405,-73.99212000
-1.25045405,-73.99212000
-1.24789405,-78.46308000
-1.24533405,-78.46308000
-1.24277405,-78.46308000
-1.24021405,-73.99212000
-1.23765405,-78.46308000
-1.23509405,-73.99212000
-1.23253405,-73.99212000
-1.22997405,-73.99212000
-1.22741405,-78.46308000
-1.22485405,-73.99212000
-1.22229405,-73.99212000
-1.21973405,-78.46308000
-1.21717405,-73.99212000
-1.21461405,-78.46308000
-1.21205405,-78.46308000
-1.20949405,-78.46308000
-1.20693405,-73.99212000
-1.20437405,-73.99212000
-1.20181405,-73.99212000
-1.19925405,-73.99212000
-1.19669405,-78.46308000
-1.19413405,-73.99212000
-1.19157405,-73.99212000
-1.18901405,-73.99212000
-1.18645405,-78.46308000
-1.18389405,-78.46308000
-1.18133405,-73.99212000
-1.17877405,-73.99212000
-1.17621405,-73.99212000
-1.17365405,-73.99212000
-1.17109405,-73.99212000
-1.16853405,-73.99212000
-1.16597405,-73.99212000
-1.16341405,-78.46308000
-1.16085405,-73.99212000
-1.15829405,-73.99212000
-1.15573405,-78.46308000
-1.15317405,-73.99212000
-1.15061405,-73.99212000
-1.14805405,-73.99212000
-1.14549405,-73.99212000
-1.14293405,-73.99212000
-1.14037405,-73.99212000
-1.13781405,-78.46308000
-1.13525405,-73.99212000
-1.13269405,-73.99212000
-1.13013405,-73.99212000
-1.12757405,-73.99212000
-1.12501405,-73.99212000
-1.12245405,-78.46308000
-1.11989405,-73.99212000
-1.11733405,-73.99212000
-1.11477405,-78.46308000
-1.11221405,-73.99212000
-1.10965405,-73.99212000
-1.10709405,-73.99212000
-1.10453405,-73.99212000
-1.10197405,-73.99212000
-1.09941405,-73.99212000
-1.09685405,-73.99212000
-1.09429405,-73.99212000
-1.09173405,-73.99212000
-1.08917405,-73.99212000
-1.08661405,-69.50591000
-1.08405405,-73.99212000
-1.08149405,-73.99212000
-1.07893405,-73.99212000
-1.07637405,-73.99212000
-1.07381405,-73.99212000
-1.07125405,-73.99212000
-1.06869405,-73.99212000
-1.06613405,-73.99212000
-1.06357405,-73.99212000
-1.06101405,-73.99212000
-1.05845405,-73.99212000
-1.05589405,-73.99212000
-1.05333405,-73.99212000
-1.05077405,-73.99212000
-1.04821405,-69.50591000
-1.04565405,-73.99212000
-1.04309405,-73.99212000
-1.04053405,-73.99212000
-1.03797405,-78.46308000
-1.03541405,-73.99212000
-1.03285405,-73.99212000
-1.03029405,-73.99212000
-1.02773405,-73.99212000
-1.02517405,-73.99212000
-1.02261405,-73.99212000
-1.02005405,-73.99212000
-1.01749405,-73.99212000
-1.01493405,-73.99212000
-1.01237405,-73.99212000
-1.00981405,-73.99212000
-1.00725405,-73.99212000
-1.00469405,-78.46308000
-1.00213405,-73.99212000
-0.99957405,-73.99212000
-0.99701405,-73.99212000
-0.99445405,-73.99212000
-0.99189405,-73.99212000
-0.98933405,-73.99212000
-0.98677405,-69.50591000
-0.98421405,-69.50591000
-0.98165405,-73.99212000
-0.97909405,-73.99212000
-0.97653405,-73.99212000
-0.97397405,-73.99212000
-0.97141405,-73.99212000
-0.96885405,-73.99212000
-0.96629405,-73.99212000
-0.96373405,-69.50591000
-0.96117405,-73.99212000
-0.95861405,-69.50591000
-0.95605405,-73.99212000
-0.95349405,-73.99212000
-0.95093405,-78.46308000
-0.94837405,-73.99212000
-0.94581405,-73.99212000
-0.94325405,-73.99212000
-0.94069405,-78.46308000
-0.93813405,-73.99212000
-0.93557405,-78.46308000
-0.93301405,-73.99212000
-0.93045405,-73.99212000
-0.92789405,-73.99212000
-0.92533405,-73.99212000
-0.92277405,-73.99212000
-0.92021405,-73.99212000
-0.91765405,-73.99212000
-0.91509405,-73.99212000
-0.91253405,-73.99212000
-0.90997405,-69.50591000
-0.90741405,-73.99212000
-0.90485405,-73.99212000
-0.90229405,-73.99212000
-0.89973405,-73.99212000
-0.89717405,-73.99212000
-0.89461405,-73.99212000
-0.89205405,-73.99212000
-0.88949405,-73.99212000
-0.88693405,-73.99212000
-0.88437405,-73.99212000
-0.88181405,-73.99212000
-0.87925405,-73.99212000
-0.87669405,-73.99212000
-0.87413405,-73.99212000
-0.87157405,-73.99212000
-0.86901405,-73.99212000
-0.86645405,-73.99212000
-0.86389405,-73.99212000
-0.86133405,-73.99212000
-0.85877405,-73.99212000
-0.85621405,-73.99212000
-0.85365405,-73.99212000
-0.85109405,-73.99212000
-0.84853405,-73.99212000
-0.84597405,-73.99212000
-0.84341405,-73.99212000
-0.84085405,-73.99212000
-0.83829405,-73.99212000
-0.83573405,-73.99212000
-0.83317405,-73.99212000
-0.83061405,-73.99212000
-0.82805405,-73.99212000
-0.82549405,-73.99212000
-0.82293405,-73.99212000
-0.82037405,-73.99212000
-0.81781405,-69.50591000
-0.81525405,-78.46308000
-0.81269405,-73.99212000
-0.81013405,-69.50591000
-0.80757405,-96.34693000
-0.80501405,-118.70170000
-0.80245405,-136.60080000
-0.79989405,-150.01370000
-0.79733405,-158.95570000
-0.79477405,-167.89760000
-0.79221405,-176.83950000
-0.78965405,-181.31050000
-0.78709405,-190.26760000
-0.78453405,-194.73860000
-0.78197405,-203.68050000
-0.77941405,-208.15150000
-0.77685405,-212.62240000
-0.77429405,-217.09340000
-0.77173405,-221.56440000
-0.76917405,-226.03530000
-0.76661405,-230.50630000
-0.76405405,-230.50630000
-0.76149405,-230.50630000
-0.75893405,-234.97720000
-0.75637405,-239.44820000
-0.75381405,-239.44820000
-0.75125405,-239.44820000
-0.74869405,-243.91920000
-0.74613405,-243.91920000
-0.74357405,-243.91920000
-0.74101405,-248.40540000
-0.73845405,-248.40540000
-0.73589405,-248.40540000
-0.73333405,-248.40540000
-0.73077405,-248.40540000
-0.72821405,-243.91920000
-0.72565405,-248.40540000
-0.72309405,-243.91920000
-0.72053405,-248.40540000
-0.71797405,-243.91920000
-0.71541405,-239.44820000
-0.71285405,-239.44820000
-0.71029405,-239.44820000
-0.70773405,-234.97720000
-0.70517405,-234.97720000
-0.70261405,-230.50630000
-0.70005405,-230.50630000
-0.69749405,-230.50630000
-0.69493405,-226.03530000
-0.69237405,-226.03530000
-0.68981405,-221.56440000
-0.68725405,-221.56440000
-0.68469405,-217.09340000
-0.68213405,-212.62240000
-0.67957405,-212.62240000
-0.67701405,-208.15150000
-0.67445405,-203.68050000
-0.67189405,-203.68050000
-0.66933405,-199.20960000
-0.66677405,-194.73860000
-0.66421405,-194.73860000
-0.66165405,-190.26760000
-0.65909405,-185.78140000
-0.65653405,-185.78140000
-0.65397405,-181.31050000
-0.65141405,-176.83950000
-0.64885405,-176.83950000
-0.64629405,-172.36850000
-0.64373405,-167.89760000
-0.64117405,-167.89760000
-0.63861405,-158.95570000
-0.63605405,-158.95570000
-0.63349405,-158.95570000
-0.63093405,-154.48470000
-0.62837405,-150.01370000
-0.62581405,-150.01370000
-0.62325405,-141.07180000
-0.62069405,-141.07180000
-0.61813405,-136.60080000
-0.61557405,-136.60080000
-0.61301405,-132.12990000
-0.61045405,-127.64370000
-0.60789405,-123.17270000
-0.60533405,-123.17270000
-0.60277405,-118.70170000
-0.60021405,-114.23080000
-0.59765405,-114.23080000
-0.59509405,-114.23080000
-0.59253405,-105.28880000
-0.58997405,-105.28880000
-0.58741405,-105.28880000
-0.58485405,-100.81790000
-0.58229405,-96.34693000
-0.57973405,-96.34693000
-0.57717405,-91.87596000
-0.57461405,-87.40501000
-0.57205405,-87.40501000
-0.56949405,-87.40501000
-0.56693405,-82.93404000
-0.56437405,-78.46308000
-0.56181405,-78.46308000
-0.55925405,-78.46308000
-0.55669405,-73.99212000
-0.55413405,-69.50591000
-0.55157405,-69.50591000
-0.54901405,-69.50591000
-0.54645405,-65.03493000
-0.54389405,-65.03493000
-0.54133405,-60.56398000
-0.53877405,-60.56398000
-0.53621405,-60.56398000
-0.53365405,-60.56398000
-0.53109405,-51.62206000
-0.52853405,-51.62206000
-0.52597405,-51.62206000
-0.52341405,-51.62206000
-0.52085405,-47.15109000
-0.51829405,-42.68013000
-0.51573405,-42.68013000
-0.51317405,-42.68013000
-0.51061405,-42.68013000
-0.50805405,-42.68013000
-0.50549405,-42.68013000
-0.50293405,-38.20917000
-0.50037405,-33.73821000
-0.49781405,-33.73821000
-0.49525405,-33.73821000
-0.49269405,-33.73821000
-0.49013405,-29.26725000
-0.48757405,-29.26725000
-0.48501405,-29.26725000
-0.48245405,-29.26725000
-0.47989405,-29.26725000
-0.47733405,-24.79629000
-0.47477405,-24.79629000
-0.47221405,-24.79629000
-0.46965405,-24.79629000
-0.46709405,-20.32533000
-0.46453405,-20.32533000
-0.46197405,-20.32533000
-0.45941405,-20.32533000
-0.45685405,-15.85437000
-0.45429405,-15.85437000
-0.45173405,-15.85437000
-0.44917405,-15.85437000
-0.44661405,-15.85437000
-0.44405405,-15.85437000
-0.44149405,-15.85437000
-0.43893405,-15.85437000
-0.43637405,-15.85437000
-0.43381405,-15.85437000
-0.43125405,-11.38340000
-0.42869405,-15.85437000
-0.42613405,-11.38340000
-0.42357405,-15.85437000
-0.42101405,-11.38340000
-0.41845405,-11.38340000
-0.41589405,-11.38340000
-0.41333405,-11.38340000
-0.41077405,-11.38340000
-0.40821405,-11.38340000
-0.40565405,-11.38340000
-0.40309405,-11.38340000
-0.40053405,-11.38340000
-0.39797405,-11.38340000
-0.39541405,-11.38340000
-0.39285405,-11.38340000
-0.39029405,-11.38340000
-0.38773405,-11.38340000
-0.38517405,-11.38340000
-0.38261405,-11.38340000
-0.38005405,-11.38340000
-0.37749405,-11.38340000
-0.37493405,-11.38340000
-0.37237405,-11.38340000
-0.36981405,-11.38340000
-0.36725405,-11.38340000
-0.36469405,-11.38340000
-0.36213405,-11.38340000
-0.35957405,-11.38340000
-0.35701405,-11.38340000
-0.35445405,-11.38340000
-0.35189405,-11.38340000
-0.34933405,-11.38340000
-0.34677405,-11.38340000
-0.34421405,-11.38340000
-0.34165405,-11.38340000
-0.33909405,-11.38340000
-0.33653405,-11.38340000
-0.33397405,-11.38340000
-0.33141405,-11.38340000
-0.32885405,-11.38340000
-0.32629405,-11.38340000
-0.32373405,-11.38340000
-0.32117405,-15.85437000
-0.31861405,-15.85437000
-0.31605405,-15.85437000
-0.31349405,-15.85437000
-0.31093405,-15.85437000
-0.30837405,-15.85437000
-0.30581405,-15.85437000
-0.30325405,-15.85437000
-0.30069405,-15.85437000
-0.29813405,-15.85437000
-0.29557405,-15.85437000
-0.29301405,-6.91244200
-0.29045405,73.58012000
-0.28789405,167.50080000
-0.28533405,247.99340000
-0.28277405,306.13110000
-0.28021406,346.38510000
-0.27765406,377.68180000
-0.27509406,400.05190000
-0.27253406,422.40670000
-0.26997406,440.29050000
-0.26741406,458.18960000
-0.26485406,476.07350000
-0.26229406,493.95730000
-0.25973406,Infinity
-0.25717406,Infinity
-0.25461406,Infinity
-0.25205406,Infinity
-0.24949406,Infinity
-0.24693406,Infinity
-0.24437406,Infinity
-0.24181406,Infinity
-0.23925406,Infinity
-0.23669406,Infinity
-0.23413406,Infinity
-0.23157406,Infinity
-0.22901406,Infinity
-0.22645406,Infinity
-0.22389406,Infinity
-0.22133406,Infinity
-0.21877406,Infinity
-0.21621406,Infinity
-0.21365406,Infinity
-0.21109406,Infinity
-0.20853406,Infinity
-0.20597406,Infinity
-0.20341406,Infinity
-0.20085406,Infinity
-0.19829406,Infinity
-0.19573406,Infinity
-0.19317406,Infinity
-0.19061406,Infinity
-0.18805406,Infinity
-0.18549406,Infinity
-0.18293406,Infinity
-0.18037406,Infinity
-0.17781406,Infinity
-0.17525406,Infinity
-0.17269406,Infinity
-0.17013406,Infinity
-0.16757406,Infinity
-0.16501406,Infinity
-0.16245406,Infinity
-0.15989406,Infinity
-0.15733406,Infinity
-0.15477406,Infinity
-0.15221406,493.95730000
-0.14965406,485.01540000
-0.14709406,476.07350000
-0.14453406,467.13150000
-0.14197406,458.18960000
-0.13941406,449.24770000
-0.13685406,435.81950000
-0.13429406,431.34860000
-0.13173406,417.93570000
-0.12917406,408.99380000
-0.12661406,400.05190000
-0.12405406,395.58090000
-0.12149406,382.15270000
-0.11893406,373.21080000
-0.11637406,359.79790000
-0.11381406,350.85600000
-0.11125406,341.91410000
-0.10869406,332.97220000
-0.10613406,324.01500000
-0.10357406,315.07310000
-0.10101406,306.13110000
-0.09845406,292.71830000
-0.09589406,288.24730000
-0.09333406,274.83440000
-0.09077406,265.87720000
-0.08821406,256.93530000
-0.08565406,252.46440000
-0.08309406,239.05150000
-0.08053406,230.10950000
-0.07797406,221.16760000
-0.07541406,212.21040000
-0.07285406,203.26850000
-0.07029406,194.32660000
-0.06773406,185.38470000
-0.06517406,176.44270000
-0.06261406,167.50080000
-0.06005406,163.02990000
-0.05749406,154.07270000
-0.05493406,145.13080000
-0.05237406,136.18880000
-0.04981406,127.24690000
-0.04725406,118.30500000
-0.04469406,109.36310000
-0.04213406,100.42120000
-0.03957406,95.93493000
-0.03701406,91.46397000
-0.03445406,82.52204000
-0.03189406,73.58012000
-0.02933406,64.63820000
-0.02677406,55.69627000
-0.02421406,51.22532000
-0.02165406,42.28339000
-0.01909406,37.79717000
-0.01653406,28.85525000
-0.01397406,24.38429000
-0.01141406,19.91333000
-0.00885406,10.97140000
-0.00629406,2.02948100
-0.00373406,-2.44148100
-0.00117406,-6.91244200
0.00138594,-15.85437000
0.00394594,-20.32533000
0.00650594,-24.79629000
0.00906594,-33.73821000
0.01162594,-33.73821000
0.01418594,-42.68013000
0.01674594,-51.62206000
0.01930594,-51.62206000
0.02186594,-60.56398000
0.02442594,-65.03493000
0.02698594,-69.50591000
0.02954594,-78.46308000
0.03210594,-78.46308000
0.03466594,-87.40501000
0.03722594,-87.40501000
0.03978594,-96.34693000
0.04234594,-100.81790000
0.04490594,-105.28880000
0.04746594,-109.75980000
0.05002594,-114.23080000
0.05258594,-118.70170000
0.05514594,-118.70170000
0.05770594,-123.17270000
0.06026594,-132.12990000
0.06282594,-132.12990000
0.06538594,-141.07180000
0.06794594,-141.07180000
0.07050594,-145.54280000
0.07306594,-150.01370000
0.07562594,-154.48470000
0.07818594,-154.48470000
0.08074594,-158.95570000
0.08330594,-163.42660000
0.08586594,-167.89760000
0.08842594,-167.89760000
0.09098594,-172.36850000
0.09354594,-176.83950000
0.09610594,-176.83950000
0.09866594,-181.31050000
0.10122594,-185.78140000
0.10378594,-185.78140000
0.10634594,-190.26760000
0.10890594,-194.73860000
0.11146594,-194.73860000
0.11402594,-194.73860000
0.11658594,-199.20960000
0.11914594,-203.68050000
0.12170594,-203.68050000
0.12426594,-208.15150000
0.12682594,-208.15150000
0.12938594,-212.62240000
0.13194594,-212.62240000
0.13450594,-212.62240000
0.13706594,-221.56440000
0.13962594,-221.56440000
0.14218594,-221.56440000
0.14474594,-221.56440000
0.14730594,-226.03530000
0.14986594,-226.03530000
0.15242594,-230.50630000
0.15498594,-230.50630000
0.15754594,-230.50630000
0.16010594,-230.50630000
0.16266594,-230.50630000
0.16522594,-234.97720000
0.16778594,-239.44820000
0.17034594,-239.44820000
0.17290594,-239.44820000
0.17546594,-239.44820000
0.17802594,-239.44820000
0.18058594,-239.44820000
0.18314594,-243.91920000
0.18570594,-243.91920000
0.18826594,-248.40540000
0.19082594,-243.91920000
0.19338594,-248.40540000
0.19594594,-248.40540000
0.19850594,-248.40540000
0.20106594,-248.40540000
0.20362594,-248.40540000
0.20618594,-248.40540000
0.20874594,-248.40540000
0.21130594,-248.40540000
0.21386594,-252.87640000
0.21642594,-248.40540000
0.21898594,-252.87640000
0.22154594,-257.34730000
0.22410594,-257.34730000
0.22666594,-252.87640000
0.22922594,-257.34730000
0.23178594,-257.34730000
0.23434594,-257.34730000
0.23690594,-257.34730000
0.23946594,-257.34730000
0.24202594,-257.34730000
0.24458594,-257.34730000
0.24714594,-257.34730000
0.24970594,-257.34730000
0.25226594,-257.34730000
0.25482594,-257.34730000
0.25738594,-257.34730000
0.25994594,-257.34730000
0.26250594,-257.34730000
0.26506594,-257.34730000
0.26762594,-257.34730000
0.27018594,-257.34730000
0.27274594,-257.34730000
0.27530594,-257.34730000
0.27786594,-257.34730000
0.28042594,-257.34730000
0.28298594,-257.34730000
0.28554594,-257.34730000
0.28810594,-257.34730000
0.29066594,-257.34730000
0.29322594,-257.34730000
0.29578594,-257.34730000
0.29834594,-257.34730000
0.30090594,-257.34730000
0.30346594,-257.34730000
0.30602594,-257.34730000
0.30858594,-257.34730000
0.31114594,-257.34730000
0.31370594,-257.34730000
0.31626594,-257.34730000
0.31882594,-257.34730000
0.32138594,-257.34730000
0.32394594,-252.87640000
0.32650594,-252.87640000
0.32906594,-252.87640000
0.33162594,-252.87640000
0.33418594,-252.87640000
0.33674594,-248.40540000
0.33930594,-248.40540000
0.34186594,-252.87640000
0.34442594,-248.40540000
0.34698594,-252.87640000
0.34954594,-248.40540000
0.35210594,-248.40540000
0.35466594,-248.40540000
0.35722594,-248.40540000
0.35978594,-248.40540000
0.36234594,-248.40540000
0.36490594,-248.40540000
0.36746594,-248.40540000
0.37002594,-248.40540000
0.37258594,-248.40540000
0.37514594,-243.91920000
0.37770594,-243.91920000
0.38026594,-248.40540000
0.38282594,-243.91920000
0.38538594,-243.91920000
0.38794594,-243.91920000
0.39050594,-243.91920000
0.39306594,-239.44820000
0.39562594,-239.44820000
0.39818594,-239.44820000
0.40074594,-239.44820000
0.40330594,-239.44820000
0.40586594,-239.44820000
0.40842594,-239.44820000
0.41098594,-239.44820000
0.41354594,-239.44820000
0.41610594,-234.97720000
0.41866594,-234.97720000
0.42122594,-234.97720000
0.42378594,-234.97720000
0.42634594,-234.97720000
0.42890594,-230.50630000
0.43146594,-230.50630000
0.43402594,-230.50630000
0.43658594,-230.50630000
0.43914594,-230.50630000
0.44170594,-230.50630000
0.44426594,-230.50630000
0.44682594,-230.50630000
0.44938594,-230.50630000
0.45194594,-226.03530000
0.45450594,-230.50630000
0.45706594,-226.03530000
0.45962594,-226.03530000
0.46218594,-226.03530000
0.46474594,-226.03530000
0.46730594,-221.56440000
0.46986594,-221.56440000
0.47242594,-221.56440000
0.47498594,-221.56440000
0.47754594,-221.56440000
0.48010594,-221.56440000
0.48266594,-221.56440000
0.48522594,-221.56440000
0.48778594,-217.09340000
0.49034594,-217.09340000
0.49290594,-217.09340000
0.49546594,-217.09340000
0.49802594,-217.09340000
0.50058594,-212.62240000
0.50314594,-212.62240000
0.50570594,-212.62240000
0.50826594,-212.62240000
0.51082594,-212.62240000
0.51338594,-212.62240000
0.51594594,-212.62240000
0.51850594,-212.62240000
0.52106594,-208.15150000
0.52362594,-208.15150000
0.52618594,-208.15150000
0.52874594,-208.15150000
0.53130594,-203.68050000
0.53386594,-208.15150000
0.53642594,-203.68050000
0.53898594,-203.68050000
0.54154594,-203.68050000
0.54410594,-203.68050000
0.54666594,-203.68050000
0.54922594,-203.68050000
0.55178594,-203.68050000
0.55434594,-203.68050000
0.55690594,-203.68050000
0.55946594,-199.20960000
0.56202594,-199.20960000
0.56458594,-199.20960000
0.56714594,-194.73860000
0.56970594,-194.73860000
0.57226594,-194.73860000
0.57482594,-194.73860000
0.57738594,-194.73860000
0.57994594,-194.73860000
0.58250594,-190.26760000
0.58506594,-194.73860000
0.58762594,-194.73860000
0.59018594,-190.26760000
0.59274594,-190.26760000
0.59530594,-190.26760000
0.59786594,-190.26760000
0.60042594,-190.26760000
0.60298594,-185.78140000
0.60554594,-185.78140000
0.60810594,-185.78140000
0.61066594,-185.78140000
0.61322594,-185.78140000
0.61578594,-185.78140000
0.61834594,-185.78140000
0.62090594,-185.78140000
0.62346594,-185.78140000
0.62602594,-181.31050000
0.62858594,-185.78140000
0.63114594,-181.31050000
0.63370594,-181.31050000
0.63626594,-181.31050000
0.63882594,-176.83950000
0.64138594,-181.31050000
0.64394594,-176.83950000
0.64650594,-176.83950000
0.64906594,-176.83950000
0.65162594,-176.83950000
0.65418594,-176.83950000
0.65674594,-176.83950000
0.65930594,-176.83950000
0.66186594,-176.83950000
0.66442594,-176.83950000
0.66698594,-176.83950000
0.66954594,-176.83950000
0.67210594,-172.36850000
0.67466594,-172.36850000
0.67722594,-172.36850000
0.67978594,-172.36850000
0.68234594,-172.36850000
0.68490594,-167.89760000
0.68746594,-167.89760000
0.69002594,-167.89760000
0.69258594,-167.89760000
0.69514594,-167.89760000
0.69770594,-167.89760000
0.70026594,-167.89760000
0.70282594,-167.89760000
0.70538594,-167.89760000
0.70794594,-167.89760000
0.71050594,-167.89760000
0.71306594,-163.42660000
0.71562594,-163.42660000
0.71818594,-163.42660000
0.72074594,-163.42660000
0.72330594,-158.95570000
0.72586594,-158.95570000
0.72842594,-158.95570000
0.73098594,-158.95570000
0.73354594,-158.95570000
0.73610594,-158.95570000
0.73866594,-158.95570000
0.74122594,-158.95570000
0.74378594,-158.95570000
0.74634594,-158.95570000
0.74890594,-158.95570000
0.75146594,-158.95570000
0.75402594,-154.48470000
0.75658594,-158.95570000
0.75914594,-154.48470000
0.76170594,-154.48470000
0.76426594,-150.01370000
0.76682594,-154.48470000
0.76938594,-154.48470000
0.77194594,-154.48470000
0.77450594,-154.48470000
0.77706594,-150.01370000
0.77962594,-150.01370000
0.78218594,-150.01370000
0.78474594,-150.01370000
0.78730594,-150.01370000
0.78986594,-150.01370000
0.79242594,-150.01370000
0.79498594,-150.01370000
0.79754594,-150.01370000
0.80010594,-150.01370000
0.80266594,-145.54280000
0.80522594,-150.01370000
0.80778594,-150.01370000
0.81034594,-145.54280000
0.81290594,-145.54280000
0.81546594,-141.07180000
0.81802594,-141.07180000
0.82058594,-141.07180000
0.82314594,-141.07180000
0.82570594,-141.07180000
0.82826594,-141.07180000
0.83082594,-141.07180000
0.83338594,-141.07180000
0.83594594,-141.07180000
0.83850594,-141.07180000
0.84106594,-141.07180000
0.84362594,-141.07180000
0.84618594,-141.07180000
0.84874594,-141.07180000
0.85130594,-141.07180000
0.85386594,-136.60080000
0.85642594,-141.07180000
0.85898594,-136.60080000
0.86154594,-136.60080000
0.86410594,-136.60080000
0.86666594,-136.60080000
0.86922594,-136.60080000
0.87178594,-136.60080000
0.87434594,-136.60080000
0.87690594,-136.60080000
0.87946594,-132.12990000
0.88202594,-132.12990000
0.88458594,-132.12990000
0.88714594,-132.12990000
0.88970594,-132.12990000
0.89226594,-132.12990000
0.89482594,-132.12990000
0.89738594,-132.12990000
0.89994594,-132.12990000
0.90250594,-132.12990000
0.90506594,-132.12990000
0.90762594,-132.12990000
0.91018594,-132.12990000
0.91274594,-132.12990000
0.91530594,-127.64370000
0.91786594,-132.12990000
0.92042594,-127.64370000
0.92298594,-127.64370000
0.92554594,-132.12990000
0.92810594,-127.64370000
0.93066594,-123.17270000
0.93322594,-127.64370000
0.93578594,-127.64370000
0.93834594,-123.17270000
0.94090594,-123.17270000
0.94346594,-123.17270000
0.94602594,-123.17270000
0.94858594,-123.17270000
0.95114594,-123.17270000
0.95370594,-123.17270000
0.95626594,-123.17270000
0.95882594,-123.17270000
0.96138594,-123.17270000
0.96394594,-123.17270000
0.96650594,-123.17270000
0.96906594,-123.17270000
0.97162594,-118.70170000
0.97418594,-118.70170000
0.97674594,-123.17270000
0.97930594,-118.70170000
0.98186594,-123.17270000
0.98442594,-118.70170000
0.98698594,-118.70170000
0.98954594,-118.70170000
0.99210594,-118.70170000
0.99466594,-118.70170000
0.99722594,-118.70170000
0.99978594,-118.70170000
1.00234594,-118.70170000
1.00490594,-118.70170000
1.00746594,-118.70170000
1.01002594,-114.23080000
1.01258594,-114.23080000
1.01514594,-114.23080000
1.01770594,-114.23080000
1.02026594,-114.23080000
1.02282594,-114.23080000
1.02538594,-114.23080000
1.02794594,-114.23080000
1.03050594,-114.23080000
1.03306594,-114.23080000
1.03562594,-114.23080000
1.03818594,-114.23080000
1.04074594,-114.23080000
1.04330594,-114.23080000
1.04586594,-114.23080000
1.04842594,-114.23080000
1.05098594,-114.23080000
1.05354594,-114.23080000
1.05610594,-109.75980000
1.05866594,-109.75980000
1.06122594,-109.75980000
1.06378594,-109.75980000
1.06634594,-109.75980000
1.06890594,-109.75980000
1.07146594,-109.75980000
1.07402594,-105.28880000
1.07658594,-105.28880000
1.07914594,-105.28880000
1.08170594,-105.28880000
1.08426594,-105.28880000
1.08682594,-105.28880000
1.08938594,-105.28880000
1.09194594,-105.28880000
1.09450594,-105.28880000
1.09706594,-105.28880000
1.09962594,-105.28880000
1.10218594,-105.28880000
1.10474594,-105.28880000
1.10730594,-105.28880000
1.10986594,-105.28880000
1.11242594,-105.28880000
1.11498594,-105.28880000
1.11754594,-105.28880000
1.12010594,-105.28880000
1.12266594,-105.28880000
1.12522594,-105.28880000
1.12778594,-105.28880000
1.13034594,-100.81790000
1.13290594,-100.81790000
1.13546594,-100.81790000
1.13802594,-100.81790000
1.14058594,-100.81790000
1.14314594,-100.81790000
1.14570594,-100.81790000
1.14826594,-100.81790000
1.15082594,-100.81790000
1.15338594,-100.81790000
1.15594594,-100.81790000
1.15850594,-100.81790000
1.16106594,-100.81790000
1.16362594,-96.34693000
1.16618594,-96.34693000
1.16874594,-96.34693000
1.17130594,-100.81790000
1.17386594,-96.34693000
1.17642594,-96.34693000
1.17898594,-96.34693000
1.18154594,-96.34693000
1.18410594,-96.34693000
1.18666594,-96.34693000
1.18922594,-96.34693000
1.19178594,-96.34693000
1.19434594,-96.34693000
1.19690594,-96.34693000
1.19946594,-96.34693000
1.20202594,-96.34693000
1.20458594,-96.34693000
1.20714594,-96.34693000
1.20970594,-96.34693000
1.21226594,-96.34693000
1.21482594,-96.34693000
1.21738594,-96.34693000
1.21994594,-96.34693000
1.22250594,-96.34693000
1.22506594,-96.34693000
1.22762594,-96.34693000
1.23018594,-96.34693000
1.23274594,-96.34693000
1.23530594,-96.34693000
1.23786594,-96.34693000
1.24042594,-96.34693000
1.24298594,-96.34693000
1.24554594,-96.34693000
1.24810594,-96.34693000
1.25066594,-96.34693000
1.25322594,-96.34693000
1.25578594,-96.34693000
1.25834594,-91.87596000
1.26090594,-96.34693000
1.26346594,-91.87596000
1.26602594,-96.34693000
1.26858594,-96.34693000
1.27114594,-96.34693000
1.27370594,-91.87596000
1.27626594,-96.34693000
1.27882594,-96.34693000
1.28138594,-96.34693000
1.28394594,-91.87596000
1.28650594,-96.34693000
1.28906594,-91.87596000
1.29162594,-91.87596000
1.29418594,-91.87596000
1.29674594,-91.87596000
1.29930594,-91.87596000
1.30186594,-91.87596000
1.30442594,-91.87596000
1.30698594,-87.40501000
1.30954594,-91.87596000
1.31210594,-91.87596000
1.31466594,-91.87596000
1.31722594,-91.87596000
1.31978594,-87.40501000
1.32234594,-91.87596000
1.32490594,-87.40501000
1.32746594,-91.87596000
1.33002594,-91.87596000
1.33258594,-91.87596000
1.33514594,-87.40501000
1.33770594,-87.40501000
1.34026594,-87.40501000
1.34282594,-87.40501000
1.34538594,-87.40501000
1.34794594,-87.40501000
1.35050594,-87.40501000
1.35306594,-87.40501000
1.35562594,-87.40501000
1.35818594,-87.40501000
1.36074594,-87.40501000
1.36330594,-87.40501000
1.36586593,-87.40501000
1.36842593,-87.40501000
1.37098593,-87.40501000
1.37354593,-87.40501000
1.37610593,-87.40501000
1.37866593,-87.40501000
1.38122593,-87.40501000
1.38378593,-87.40501000
1.38634593,-87.40501000
1.38890593,-87.40501000
1.39146593,-87.40501000
1.39402593,-87.40501000
1.39658593,-87.40501000
1.39914593,-87.40501000
1.40170593,-87.40501000
1.40426593,-87.40501000
1.40682593,-87.40501000
1.40938593,-87.40501000
1.41194593,-87.40501000
1.41450593,-87.40501000
1.41706593,-87.40501000
1.41962593,-87.40501000
1.42218593,-87.40501000
1.42474593,-87.40501000
1.42730593,-87.40501000
1.42986593,-87.40501000
1.43242593,-87.40501000
1.43498593,-87.40501000
1.43754593,-87.40501000
1.44010593,-87.40501000
1.44266593,-87.40501000
1.44522593,-87.40501000
1.44778593,-87.40501000
1.45034593,-87.40501000
1.45290593,-87.40501000
1.45546593,-87.40501000
1.45802593,-82.93404000
1.46058593,-82.93404000
1.46314593,-82.93404000
1.46570593,-82.93404000
1.46826593,-82.93404000
1.47082593,-82.93404000
1.47338593,-82.93404000
1.47594593,-82.93404000
1.47850593,-82.93404000
1.48106593,-82.93404000
1.48362593,-82.93404000
1.48618593,-82.93404000
1.48874593,-82.93404000
1.49130593,-82.93404000
1.49386593,-82.93404000
1.49642593,-82.93404000
1.49898593,-82.93404000
1.50154593,-82.93404000
1.50410593,-82.93404000
1.50666593,-82.93404000
1.50922593,-82.93404000
1.51178593,-82.93404000
1.51434593,-82.93404000
1.51690593,-78.46308000
1.51946593,-78.46308000
1.52202593,-82.93404000
1.52458593,-82.93404000
1.52714593,-82.93404000
1.52970593,-78.46308000
1.53226593,-78.46308000
1.53482593,-82.93404000
1.53738593,-78.46308000
1.53994593,-78.46308000
1.54250593,-82.93404000
1.54506593,-78.46308000
1.54762593,-78.46308000
1.55018593,-82.93404000
1.55274593,-78.46308000
1.55530593,-78.46308000
1.55786593,-78.46308000
1.56042593,-78.46308000
1.56298593,-78.46308000
1.56554593,-78.46308000
1.56810593,-78.46308000
1.57066593,-78.46308000
1.57322593,-78.46308000
1.57578593,-78.46308000
1.57834593,-78.46308000
1.58090593,-78.46308000
1.58346593,-78.46308000
1.58602593,-78.46308000
1.58858593,-78.46308000
1.59114593,-78.46308000
1.59370593,-78.46308000
1.59626593,-78.46308000
1.59882593,-78.46308000
1.60138593,-78.46308000
1.60394593,-78.46308000
1.60650593,-78.46308000
1.60906593,-78.46308000
1.61162593,-78.46308000
1.61418593,-78.46308000
1.61674593,-78.46308000
1.61930593,-78.46308000
1.62186593,-78.46308000
1.62442593,-78.46308000
1.62698593,-78.46308000
1.62954593,-78.46308000
1.63210593,-78.46308000
1.63466593,-78.46308000
1.63722593,-78.46308000
1.63978593,-78.46308000
1.64234593,-78.46308000
1.64490593,-78.46308000
1.64746593,-78.46308000
1.65002593,-78.46308000
1.65258593,-78.46308000
1.65514593,-78.46308000
1.65770593,-78.46308000
1.66026593,-78.46308000
1.66282593,-78.46308000
1.66538593,-78.46308000
1.66794593,-78.46308000
1.67050593,-78.46308000
1.67306593,-78.46308000
1.67562593,-78.46308000
1.67818593,-78.46308000
1.68074593,-78.46308000
1.68330593,-78.46308000
1.68586593,-78.46308000
1.68842593,-78.46308000
1.69098593,-78.46308000
1.69354593,-78.46308000
1.69610593,-78.46308000
1.69866593,-78.46308000
1.70122593,-78.46308000
1.70378593,-78.46308000
1.70634593,-78.46308000
1.70890593,-78.46308000
1.71146593,-78.46308000
1.71402593,-78.46308000
1.71658593,-73.99212000
1.71914593,-78.46308000
1.72170593,-78.46308000
1.72426593,-73.99212000
1.72682593,-78.46308000
1.72938593,-73.99212000
1.73194593,-78.46308000
1.73450593,-73.99212000
1.73706593,-73.99212000
1.73962593,-73.99212000
1.74218593,-73.99212000
1.74474593,-73.99212000
1.74730593,-73.99212000
1.74986593,-73.99212000
1.75242593,-78.46308000
1.75498593,-73.99212000
1.75754593,-73.99212000
1.76010593,-73.99212000
1.76266593,-73.99212000
1.76522593,-73.99212000
1.76778593,-73.99212000
1.77034593,-73.99212000
1.77290593,-73.99212000
1.77546593,-73.99212000
1.77802593,-73.99212000
1.78058593,-73.99212000
1.78314593,-78.46308000
1.78570593,-73.99212000
1.78826593,-69.50591000
1.79082593,-73.99212000
1.79338593,-73.99212000
1.79594593,-73.99212000
1.79850593,-73.99212000
1.80106593,-73.99212000
1.80362593,-73.99212000
1.80618593,-73.99212000
1.80874593,-73.99212000
1.81130593,-73.99212000
1.81386593,-73.99212000
1.81642593,-73.99212000
1.81898593,-73.99212000
1.82154593,-73.99212000
1.82410593,-73.99212000
1.82666593,-73.99212000
1.82922593,-73.99212000
1.83178593,-73.99212000
1.83434593,-73.99212000
1.83690593,-73.99212000
1.83946593,-73.99212000
1.84202593,-73.99212000
1.84458593,-73.99212000
1.84714593,-69.50591000
1.84970593,-73.99212000
1.85226593,-73.99212000
1.85482593,-73.99212000
1.85738593,-73.99212000
1.85994593,-73.99212000
1.86250593,-69.50591000
1.86506593,-73.99212000
1.86762593,-73.99212000
1.87018593,-73.99212000
1.87274593,-73.99212000
1.87530593,-73.99212000
1.87786593,-73.99212000
1.88042593,-73.99212000
1.88298593,-73.99212000
1.88554593,-73.99212000
1.88810593,-73.99212000
1.89066593,-73.99212000
1.89322593,-73.99212000
1.89578593,-69.50591000
1.89834593,-73.99212000
1.90090593,-73.99212000
1.90346593,-73.99212000
1.90602593,-69.50591000
1.90858593,-69.50591000
1.91114593,-73.99212000
1.91370593,-73.99212000
1.91626593,-73.99212000
1.91882593,-73.99212000
1.92138593,-73.99212000
1.92394593,-69.50591000
1.92650593,-69.50591000
1.92906593,-69.50591000
1.93162593,-73.99212000
1.93418593,-73.99212000
1.93674593,-73.99212000
1.93930593,-73.99212000
1.94186593,-73.99212000
1.94442593,-73.99212000
1.94698593,-73.99212000
1.94954593,-73.99212000
1.95210593,-73.99212000
1.95466593,-69.50591000
1.95722593,-73.99212000
1.95978593,-69.50591000
1.96234593,-73.99212000
1.96490593,-73.99212000
1.96746593,-73.99212000
1.97002593,-69.50591000
1.97258593,-73.99212000
1.97514593,-73.99212000
1.97770593,-73.99212000
1.98026593,-69.50591000
1.98282593,-73.99212000
1.98538593,-69.50591000
1.98794593,-73.99212000
1.99050593,-73.99212000
1.99306593,-73.99212000
1.99562593,-73.99212000
1.99818593,-69.50591000
2.00074593,-69.50591000
2.00330593,-73.99212000
2.00586593,-73.99212000
2.00842593,-73.99212000
2.01098593,-69.50591000
2.01354593,-69.50591000
2.01610593,-73.99212000
2.01866593,-69.50591000
2.02122593,-69.50591000
2.02378593,-73.99212000
2.02634593,-73.99212000
2.02890593,-69.50591000
2.03146593,-69.50591000
2.03402593,-69.50591000
2.03658593,-73.99212000
2.03914593,-73.99212000
2.04170593,-73.99212000
2.04426593,-73.99212000
2.04682593,-69.50591000
2.04938593,-73.99212000
2.05194593,-73.99212000
2.05450593,-73.99212000
2.05706593,-73.99212000
2.05962593,-69.50591000
2.06218593,-73.99212000
2.06474593,-69.50591000
2.06730593,-73.99212000
2.06986593,-73.99212000
2.07242593,-69.50591000
2.07498593,-73.99212000
2.07754593,-69.50591000
2.08010593,-69.50591000
2.08266593,-69.50591000
2.08522593,-69.50591000
2.08778593,-69.50591000
2.09034593,-69.50591000
2.09290593,-73.99212000
2.09546593,-73.99212000
2.09802593,-69.50591000
2.10058593,-69.50591000
2.10314593,-69.50591000
2.10570593,-69.50591000
2.10826593,-73.99212000
2.11082593,-69.50591000
2.11338593,-73.99212000
2.11594593,-69.50591000
2.11850593,-69.50591000
2.12106593,-69.50591000
2.12362593,-69.50591000
2.12618593,-69.50591000
2.12874593,-69.50591000
2.13130593,-69.50591000
2.13386593,-69.50591000
2.13642593,-69.50591000
2.13898593,-69.50591000
2.14154593,-69.50591000
2.14410593,-69.50591000
2.14666593,-69.50591000
2.14922593,-69.50591000
2.15178593,-69.50591000
2.15434593,-69.50591000
2.15690593,-69.50591000
2.15946593,-69.50591000
2.16202593,-69.50591000
2.16458593,-73.99212000
2.16714593,-73.99212000
2.16970593,-73.99212000
2.17226593,-73.99212000
2.17482593,-69.50591000
2.17738593,-69.50591000
2.17994593,-73.99212000
2.18250593,-73.99212000
2.18506593,-73.99212000
2.18762593,-73.99212000
2.19018593,-73.99212000
2.19274593,-73.99212000
2.19530593,-73.99212000
2.19786593,-78.46308000
2.20042593,-78.46308000
2.20298593,-78.46308000
2.20554593,-73.99212000
2.20810593,-78.46308000
2.21066593,-78.46308000
2.21322593,-78.46308000
2.21578593,-78.46308000
2.21834593,-78.46308000
2.22090593,-78.46308000
2.22346593,-78.46308000
2.22602593,-78.46308000
2.22858593,-78.46308000
2.23114593,-82.93404000
2.23370593,-82.93404000
2.23626593,-82.93404000
2.23882593,-87.40501000
2.24138593,-82.93404000
2.24394593,-87.40501000
2.24650593,-87.40501000
2.24906593,-82.93404000
2.25162593,-87.40501000
2.25418593,-87.40501000
2.25674593,-87.40501000
2.25930593,-87.40501000
2.26186593,-87.40501000
2.26442593,-87.40501000
2.26698593,-87.40501000
2.26954593,-87.40501000
2.27210593,-91.87596000
2.27466593,-87.40501000
2.27722593,-87.40501000
2.27978593,-91.87596000
2.28234593,-91.87596000
2.28490593,-91.87596000
2.28746593,-96.34693000
2.29002593,-96.34693000
2.29258593,-96.34693000
2.29514593,-96.34693000
2.29770593,-96.34693000
2.30026593,-96.34693000
2.30282593,-96.34693000
2.30538593,-96.34693000
2.30794593,-96.34693000
2.31050593,-96.34693000
2.31306593,-96.34693000
2.31562593,-100.81790000
2.31818593,-100.81790000
2.32074593,-100.81790000
2.32330593,-100.81790000
2.32586593,-100.81790000
2.32842593,-105.28880000
2.33098593,-105.28880000
2.33354593,-105.28880000
2.33610593,-105.28880000
2.33866593,-105.28880000
2.34122593,-105.28880000
2.34378593,-105.28880000
2.34634593,-105.28880000
2.34890593,-105.28880000
2.35146593,-105.28880000
2.35402593,-105.28880000
2.35658593,-109.75980000
2.35914593,-109.75980000
2.36170593,-109.75980000
2.36426593,-109.75980000
2.36682593,-109.75980000
2.36938593,-109.75980000
2.37194593,-109.75980000
2.37450593,-114.23080000
2.37706593,-114.23080000
2.37962593,-109.75980000
2.38218593,-114.23080000
2.38474593,-114.23080000
2.38730593,-114.23080000
2.38986593,-114.23080000
2.39242593,-114.23080000
2.39498593,-114.23080000
2.39754593,-114.23080000
2.40010593,-114.23080000
2.40266593,-114.23080000
2.40522593,-114.23080000
2.40778593,-118.70170000
2.41034593,-114.23080000
2.41290593,-114.23080000
2.41546593,-114.23080000
2.41802593,-118.70170000
2.42058593,-114.23080000
2.42314593,-114.23080000
2.42570593,-118.70170000
2.42826593,-118.70170000
2.43082593,-114.23080000
2.43338593,-118.70170000
2.43594593,-114.23080000
2.43850593,-118.70170000
2.44106593,-118.70170000
2.44362593,-118.70170000
2.44618593,-118.70170000
2.44874593,-118.70170000
2.45130593,-114.23080000
2.45386593,-118.70170000
2.45642593,-118.70170000
2.45898593,-118.70170000
2.46154593,-118.70170000
2.46410593,-118.70170000
2.46666593,-118.70170000
2.46922593,-118.70170000
2.47178593,-118.70170000
2.47434593,-118.70170000
2.47690593,-118.70170000
2.47946593,-118.70170000
2.48202593,-118.70170000
2.48458593,-118.70170000
2.48714593,-114.23080000
2.48970593,-118.70170000
2.49226593,-118.70170000
2.49482593,-114.23080000
2.49738593,-118.70170000
2.49994593,-118.70170000
2.50250593,-114.23080000
2.50506593,-114.23080000
2.50762593,-114.23080000
2.51018593,-114.23080000
2.51274593,-114.23080000
2.51530593,-114.23080000
2.51786593,-114.23080000
2.52042593,-114.23080000
2.52298593,-114.23080000
2.52554593,-114.23080000
2.52810593,-114.23080000
2.53066593,-114.23080000
2.53322593,-114.23080000
2.53578593,-114.23080000
2.53834593,-114.23080000
2.54090593,-114.23080000
2.54346593,-114.23080000
2.54602593,-114.23080000
2.54858593,-114.23080000
2.55114593,-114.23080000
2.55370593,-109.75980000
2.55626593,-109.75980000
2.55882593,-114.23080000
2.56138593,-114.23080000
2.56394593,-109.75980000
2.56650593,-109.75980000
2.56906593,-114.23080000
2.57162593,-114.23080000
2.57418593,-105.28880000
2.57674593,-109.75980000
2.57930593,-109.75980000
2.58186593,-105.28880000
2.58442593,-109.75980000
2.58698593,-105.28880000
2.58954593,-105.28880000
2.59210593,-105.28880000
2.59466593,-105.28880000
2.59722593,-105.28880000
2.59978593,-105.28880000
2.60234593,-105.28880000
2.60490593,-105.28880000
2.60746593,-105.28880000
2.61002593,-105.28880000
2.61258593,-105.28880000
2.61514593,-105.28880000
2.61770593,-105.28880000
2.62026593,-105.28880000
2.62282593,-105.28880000
2.62538593,-105.28880000
2.62794593,-105.28880000
2.63050593,-105.28880000
2.63306593,-105.28880000
2.63562593,-105.28880000
2.63818593,-105.28880000
2.64074593,-105.28880000
2.64330593,-105.28880000
2.64586593,-105.28880000
2.64842593,-100.81790000
2.65098593,-100.81790000
2.65354593,-100.81790000
2.65610593,-100.81790000
2.65866593,-100.81790000
2.66122593,-100.81790000
2.66378593,-100.81790000
2.66634593,-100.81790000
2.66890593,-100.81790000
2.67146593,-100.81790000
2.67402593,-100.81790000
2.67658593,-96.34693000
2.67914593,-96.34693000
2.68170593,-96.34693000
2.68426593,-96.34693000
2.68682593,-96.34693000
2.68938593,-96.34693000
2.69194593,-96.34693000
2.69450593,-96.34693000
2.69706593,-96.34693000
2.69962593,-91.87596000
2.70218593,-91.87596000
2.70474593,-91.87596000
2.70730593,-87.40501000
2.70986593,-87.40501000
2.71242593,-87.40501000
2.71498593,-87.40501000
2.71754593,-87.40501000
2.72010593,-87.40501000
2.72266593,-87.40501000
2.72522593,-87.40501000
2.72778593,-87.40501000
2.73034593,-87.40501000
2.73290593,-87.40501000
2.73546593,-82.93404000
2.73802593,-82.93404000
2.74058593,-82.93404000
2.74314593,-82.93404000
2.74570593,-82.93404000
2.74826593,-78.46308000
2.75082593,-78.46308000
2.75338593,-78.46308000
2.75594593,-78.46308000
2.75850593,-78.46308000
2.76106593,-78.46308000
2.76362593,-78.46308000
2.76618593,-73.99212000
2.76874593,-69.50591000
2.77130593,-69.50591000
2.77386593,-69.50591000
2.77642593,-69.50591000
2.77898593,-69.50591000
2.78154593,-69.50591000
2.78410593,-69.50591000
2.78666593,-65.03493000
2.78922593,-65.03493000
2.79178593,-65.03493000
2.79434593,-65.03493000
2.79690593,-65.03493000
2.79946593,-60.56398000
2.80202593,-60.56398000
2.80458593,-60.56398000
2.80714593,-60.56398000
2.80970593,-60.56398000
2.81226593,-56.09302000
2.81482593,-56.09302000
2.81738593,-56.09302000
2.81994593,-56.09302000
2.82250593,-56.09302000
2.82506593,-51.62206000
2.82762593,-51.62206000
2.83018593,-51.62206000
2.83274593,-51.62206000
2.83530593,-51.62206000
2.83786593,-51.62206000
2.84042593,-51.62206000
2.84298593,-47.15109000
2.84554593,-47.15109000
2.84810593,-47.15109000
2.85066593,-47.15109000
2.85322593,-47.15109000
2.85578593,-42.68013000
2.85834593,-42.68013000
2.86090593,-42.68013000
2.86346593,-42.68013000
2.86602593,-42.68013000
2.86858593,-42.68013000
2.87114593,-42.68013000
2.87370593,-42.68013000
2.87626593,-42.68013000
2.87882593,-42.68013000
2.88138593,-38.20917000
2.88394593,-33.73821000
2.88650593,-38.20917000
2.88906593,-38.20917000
2.89162593,-33.73821000
2.89418593,-33.73821000
2.89674593,-33.73821000
2.89930593,-33.73821000
2.90186593,-33.73821000
2.90442593,-33.73821000
2.90698593,-33.73821000
2.90954593,-33.73821000
2.91210593,-33.73821000
2.91466593,-33.73821000
2.91722593,-33.73821000
2.91978593,-33.73821000
2.92234593,-33.73821000
2.92490593,-29.26725000
2.92746593,-29.26725000
2.93002593,-29.26725000
2.93258593,-29.26725000
2.93514593,-29.26725000
2.93770593,-29.26725000
2.94026593,-29.26725000
2.94282593,-29.26725000
2.94538593,-24.79629000
2.94794593,-24.79629000
2.95050593,-29.26725000
2.95306593,-24.79629000
2.95562593,-24.79629000
2.95818593,-29.26725000
2.96074593,-24.79629000
2.96330593,-24.79629000
2.96586593,-29.26725000
2.96842593,-24.79629000
2.97098593,-24.79629000
2.97354593,-24.79629000
2.97610593,-24.79629000
2.97866593,-24.79629000
2.98122593,-24.79629000
2.98378593,-24.79629000
2.98634593,-24.79629000
2.98890593,-29.26725000
2.99146593,-24.79629000
2.99402593,-24.79629000
2.99658593,-24.79629000
2.99914593,-24.79629000
3.00170593,-24.79629000
3.00426593,-24.79629000
3.00682593,-24.79629000
3.00938592,-24.79629000
3.01194592,-24.79629000
3.01450592,-24.79629000
3.01706592,-24.79629000
3.01962592,-24.79629000
3.02218592,-24.79629000
3.02474592,-24.79629000
3.02730592,-24.79629000
3.02986592,-24.79629000
3.03242592,-24.79629000
3.03498592,-24.79629000
3.03754592,-24.79629000
3.04010592,-24.79629000
3.04266592,-24.79629000
3.04522592,-24.79629000
3.04778592,-24.79629000
3.05034592,-24.79629000
3.05290592,-24.79629000
3.05546592,-24.79629000
3.05802592,-24.79629000
3.06058592,-24.79629000
3.06314592,-24.79629000
3.06570592,-24.79629000
3.06826592,-24.79629000
3.07082592,-24.79629000
3.07338592,-24.79629000
3.07594592,-24.79629000
3.07850592,-24.79629000
3.08106592,-24.79629000
3.08362592,-24.79629000
3.08618592,-24.79629000
3.08874592,-24.79629000
3.09130592,-24.79629000
3.09386592,-24.79629000
3.09642592,-24.79629000
3.09898592,-24.79629000
3.10154592,-24.79629000
3.10410592,-24.79629000
3.10666592,-24.79629000
3.10922592,-29.26725000
3.11178592,-29.26725000
3.11434592,-24.79629000
3.11690592,-29.26725000
3.11946592,-29.26725000
3.12202592,-29.26725000
3.12458592,-24.79629000
3.12714592,-29.26725000
3.12970592,-29.26725000
3.13226592,-29.26725000
3.13482592,-29.26725000
3.13738592,-29.26725000
3.13994592,-29.26725000
3.14250592,-29.26725000
3.14506592,-29.26725000
3.14762592,-29.26725000
3.15018592,-29.26725000
3.15274592,-29.26725000
3.15530592,-29.26725000
3.15786592,-29.26725000
3.16042592,-29.26725000
3.16298592,-33.73821000
3.16554592,-29.26725000
3.16810592,-33.73821000
3.17066592,-29.26725000
3.17322592,-29.26725000
3.17578592,-33.73821000
3.17834592,-33.73821000
3.18090592,-33.73821000
3.18346592,-33.73821000
3.18602592,-33.73821000
3.18858592,-33.73821000
3.19114592,-33.73821000
3.19370592,-33.73821000
3.19626592,-33.73821000
3.19882592,-33.73821000
3.20138592,-33.73821000
3.20394592,-33.73821000
3.20650592,-33.73821000
3.20906592,-33.73821000
3.21162592,-33.73821000
3.21418592,-33.73821000
3.21674592,-33.73821000
3.21930592,-33.73821000
3.22186592,-33.73821000
3.22442592,-33.73821000
3.22698592,-33.73821000
3.22954592,-38.20917000
3.23210592,-33.73821000
3.23466592,-38.20917000
3.23722592,-38.20917000
3.23978592,-38.20917000
3.24234592,-38.20917000
3.24490592,-38.20917000
3.24746592,-38.20917000
3.25002592,-38.20917000
3.25258592,-38.20917000
3.25514592,-42.68013000
3.25770592,-42.68013000
3.26026592,-38.20917000
3.26282592,-42.68013000
3.26538592,-42.68013000
3.26794592,-42.68013000
3.27050592,-42.68013000
3.27306592,-42.68013000
3.27562592,-42.68013000
3.27818592,-42.68013000
3.28074592,-42.68013000
3.28330592,-42.68013000
3.28586592,-42.68013000
3.28842592,-42.68013000
3.29098592,-42.68013000
3.29354592,-42.68013000
3.29610592,-42.68013000
3.29866592,-42.68013000
3.30122592,-47.15109000
3.30378592,-42.68013000
3.30634592,-42.68013000
3.30890592,-47.15109000
3.31146592,-47.15109000
3.31402592,-47.15109000
3.31658592,-47.15109000
3.31914592,-51.62206000
3.32170592,-51.62206000
3.32426592,-51.62206000
3.32682592,-47.15109000
3.32938592,-51.62206000
3.33194592,-51.62206000
3.33450592,-51.62206000
3.33706592,-51.62206000
3.33962592,-51.62206000
3.34218592,-51.62206000
3.34474592,-51.62206000
3.34730592,-51.62206000
3.34986592,-51.62206000
3.35242592,-51.62206000
3.35498592,-51.62206000
3.35754592,-51.62206000
3.36010592,-51.62206000
3.36266592,-51.62206000
3.36522592,-51.62206000
3.36778592,-51.62206000
3.37034592,-51.62206000
3.37290592,-51.62206000
3.37546592,-56.09302000
3.37802592,-51.62206000
3.38058592,-51.62206000
3.38314592,-56.09302000
3.38570592,-56.09302000
3.38826592,-56.09302000
3.39082592,-60.56398000
3.39338592,-60.56398000
3.39594592,-60.56398000
3.39850592,-60.56398000
3.40106592,-56.09302000
3.40362592,-60.56398000
3.40618592,-60.56398000
3.40874592,-60.56398000
3.41130592,-60.56398000
3.41386592,-60.56398000
3.41642592,-60.56398000
3.41898592,-60.56398000
3.42154592,-60.56398000
3.42410592,-60.56398000
3.42666592,-60.56398000
3.42922592,-60.56398000
3.43178592,-60.56398000
3.43434592,-60.56398000
3.43690592,-60.56398000
3.43946592,-60.56398000
3.44202592,-65.03493000
3.44458592,-60.56398000
3.44714592,-65.03493000
3.44970592,-60.56398000
3.45226592,-65.03493000
3.45482592,-60.56398000
3.45738592,-65.03493000
3.45994592,-65.03493000
3.46250592,-65.03493000
3.46506592,-65.03493000
3.46762592,-65.03493000
3.47018592,-65.03493000
3.47274592,-65.03493000
3.47530592,-65.03493000
3.47786592,-65.03493000
3.48042592,-65.03493000
3.48298592,-65.03493000
3.48554592,-65.03493000
3.48810592,-65.03493000
3.49066592,-69.50591000
3.49322592,-69.50591000
3.49578592,-65.03493000
3.49834592,-65.03493000
3.50090592,-69.50591000
3.50346592,-69.50591000
3.50602592,-69.50591000
3.50858592,-69.50591000
3.51114592,-69.50591000
3.51370592,-69.50591000
3.51626592,-69.50591000
3.51882592,-69.50591000
3.52138592,-69.50591000
3.52394592,-69.50591000
3.52650592,-69.50591000
3.52906592,-69.50591000
3.53162592,-69.50591000
3.53418592,-69.50591000
3.53674592,-69.50591000
3.53930592,-69.50591000
3.54186592,-69.50591000
3.54442592,-69.50591000
3.54698592,-69.50591000
3.54954592,-69.50591000
3.55210592,-69.50591000
3.55466592,-69.50591000
3.55722592,-69.50591000
3.55978592,-69.50591000
3.56234592,-69.50591000
3.56490592,-69.50591000
3.56746592,-69.50591000
3.57002592,-69.50591000
3.57258592,-73.99212000
3.57514592,-69.50591000
3.57770592,-69.50591000
3.58026592,-69.50591000
3.58282592,-69.50591000
3.58538592,-69.50591000
3.58794592,-69.50591000
3.59050592,-69.50591000
3.59306592,-73.99212000
3.59562592,-73.99212000
3.59818592,-73.99212000
3.60074592,-73.99212000
3.60330592,-69.50591000
3.60586592,-69.50591000
3.60842592,-73.99212000
3.61098592,-73.99212000
3.61354592,-73.99212000
3.61610592,-73.99212000
3.61866592,-73.99212000
3.62122592,-73.99212000
3.62378592,-73.99212000
3.62634592,-73.99212000
3.62890592,-73.99212000
3.63146592,-78.46308000
3.63402592,-78.46308000
3.63658592,-73.99212000
3.63914592,-73.99212000
3.64170592,-78.46308000
3.64426592,-73.99212000
3.64682592,-73.99212000
3.64938592,-78.46308000
3.65194592,-78.46308000
3.65450592,-78.46308000
3.65706592,-73.99212000
3.65962592,-73.99212000
3.66218592,-78.46308000
3.66474592,-73.99212000
3.66730592,-73.99212000
3.66986592,-73.99212000
3.67242592,-78.46308000
3.67498592,-73.99212000
3.67754592,-73.99212000
3.68010592,-73.99212000
3.68266592,-73.99212000
3.68522592,-73.99212000
3.68778592,-78.46308000
3.69034592,-73.99212000
3.69290592,-78.46308000
3.69546592,-73.99212000
3.69802592,-73.99212000
3.70058592,-73.99212000
3.70314592,-73.99212000
3.70570592,-73.99212000
3.70826592,-73.99212000
3.71082592,-78.46308000
3.71338592,-73.99212000
3.71594592,-73.99212000
3.71850592,-73.99212000
3.72106592,-73.99212000
3.72362592,-73.99212000
3.72618592,-78.46308000
3.72874592,-73.99212000
3.73130592,-73.99212000
3.73386592,-73.99212000
3.73642592,-73.99212000
3.73898592,-78.46308000
3.74154592,-73.99212000
3.74410592,-73.99212000
3.74666592,-73.99212000
3.74922592,-73.99212000
3.75178592,-73.99212000
3.75434592,-69.50591000
3.75690592,-73.99212000
3.75946592,-73.99212000
3.76202592,-73.99212000
3.76458592,-73.99212000
3.76714592,-78.46308000
3.76970592,-73.99212000
3.77226592,-73.99212000
3.77482592,-73.99212000
3.77738592,-73.99212000
3.77994592,-78.46308000
3.78250592,-73.99212000
3.78506592,-73.99212000
3.78762592,-73.99212000
3.79018592,-73.99212000
3.79274592,-78.46308000
3.79530592,-73.99212000
3.79786592,-78.46308000
3.80042592,-78.46308000
3.80298592,-78.46308000
3.80554592,-73.99212000
3.80810592,-73.99212000
3.81066592,-78.46308000
3.81322592,-73.99212000
3.81578592,-73.99212000
3.81834592,-73.99212000
3.82090592,-73.99212000
3.82346592,-73.99212000
3.82602592,-73.99212000
3.82858592,-73.99212000
3.83114592,-78.46308000
3.83370592,-73.99212000
3.83626592,-73.99212000
3.83882592,-78.46308000
3.84138592,-73.99212000
3.84394592,-78.46308000
3.84650592,-73.99212000
3.84906592,-73.99212000
3.85162592,-73.99212000
3.85418592,-73.99212000
3.85674592,-73.99212000
3.85930592,-78.46308000
3.86186592,-73.99212000
3.86442592,-73.99212000
3.86698592,-73.99212000
3.86954592,-73.99212000
3.87210592,-73.99212000
3.87466592,-73.99212000
3.87722592,-73.99212000
3.87978592,-69.50591000
3.88234592,-73.99212000
3.88490592,-73.99212000
3.88746592,-73.99212000
3.89002592,-73.99212000
3.89258592,-73.99212000
3.89514592,-73.99212000
3.89770592,-73.99212000
3.90026592,-69.50591000
3.90282592,-73.99212000
3.90538592,-73.99212000
3.90794592,-73.99212000
3.91050592,-73.99212000
3.91306592,-73.99212000
3.91562592,-78.46308000
3.91818592,-73.99212000
3.92074592,-73.99212000
3.92330592,-69.50591000
3.92586592,-73.99212000
3.92842592,-73.99212000
3.93098592,-73.99212000
3.93354592,-69.50591000
3.93610592,-73.99212000
3.93866592,-69.50591000
3.94122592,-73.99212000
3.94378592,-69.50591000
3.94634592,-73.99212000
3.94890592,-73.99212000
3.95146592,-69.50591000
3.95402592,-69.50591000
3.95658592,-69.50591000
3.95914592,-69.50591000
3.96170592,-69.50591000
3.96426592,-73.99212000
3.96682592,-69.50591000
3.96938592,-69.50591000
3.97194592,-69.50591000
3.97450592,-73.99212000
3.97706592,-73.99212000
3.97962592,-73.99212000
3.98218592,-73.99212000
3.98474592,-69.50591000
3.98730592,-73.99212000
3.98986592,-69.50591000
3.99242592,-69.50591000
3.99498592,-69.50591000
3.99754592,-69.50591000
4.00010592,-69.50591000
4.00266592,-69.50591000
4.00522592,-69.50591000
4.00778592,-73.99212000
4.01034592,-69.50591000
4.01290592,-69.50591000
4.01546592,-69.50591000
4.01802592,-69.50591000
4.02058592,-69.50591000
4.02314592,-69.50591000
4.02570592,-69.50591000
4.02826592,-73.99212000
4.03082592,-69.50591000
4.03338592,-69.50591000
4.03594592,-69.50591000
4.03850592,-73.99212000
4.04106592,-73.99212000
4.04362592,-69.50591000
4.04618592,-69.50591000
4.04874592,-69.50591000
4.05130592,-69.50591000
4.05386592,-69.50591000
4.05642592,-69.50591000
4.05898592,-69.50591000
4.06154592,-69.50591000
4.06410592,-69.50591000
4.06666592,-69.50591000
4.06922592,-69.50591000
4.07178592,-69.50591000
4.07434592,-69.50591000
4.07690592,-69.50591000
4.07946592,-69.50591000
4.08202592,-69.50591000
4.08458592,-69.50591000
4.08714592,-69.50591000
4.08970592,-69.50591000
4.09226592,-69.50591000
4.09482592,-69.50591000
4.09738592,-69.50591000
4.09994592,-69.50591000
4.10250592,-69.50591000
4.10506592,-69.50591000
4.10762592,-69.50591000
4.11018592,-69.50591000
4.11274592,-69.50591000
4.11530592,-69.50591000
4.11786592,-69.50591000
4.12042592,-69.50591000
4.12298592,-69.50591000
4.12554592,-69.50591000
4.12810592,-69.50591000
4.13066592,-69.50591000
4.13322592,-69.50591000
4.13578592,-69.50591000
4.13834592,-69.50591000
4.14090592,-69.50591000
4.14346592,-69.50591000
4.14602592,-69.50591000
4.14858592,-69.50591000
4.15114592,-69.50591000
4.15370592,-69.50591000
4.15626592,-69.50591000
4.15882592,-69.50591000
4.16138592,-69.50591000
4.16394592,-69.50591000
4.16650592,-69.50591000
4.16906592,-69.50591000
4.17162592,-69.50591000
4.17418592,-69.50591000
4.17674592,-69.50591000
4.17930592,-69.50591000
4.18186592,-69.50591000
4.18442592,-69.50591000
4.18698592,-69.50591000
4.18954592,-69.50591000
4.19210592,-69.50591000
4.19466592,-69.50591000
4.19722592,-69.50591000
4.19978592,-69.50591000
4.20234592,-69.50591000
4.20490592,-69.50591000
4.20746592,-69.50591000
4.21002592,-69.50591000
4.21258592,-69.50591000
4.21514592,-69.50591000
4.21770592,-69.50591000
4.22026592,-69.50591000
4.22282592,-69.50591000
4.22538592,-69.50591000
4.22794592,-69.50591000
4.23050592,-69.50591000
4.23306592,-69.50591000
4.23562592,-69.50591000
4.23818592,-69.50591000
4.24074592,-69.50591000
4.24330592,-73.99212000
4.24586592,-69.50591000
4.24842592,-69.50591000
4.25098592,-69.50591000
4.25354592,-69.50591000
4.25610592,-69.50591000
4.25866592,-69.50591000
4.26122592,-69.50591000
4.26378592,-69.50591000
4.26634592,-69.50591000
4.26890592,-69.50591000
4.27146592,-69.50591000
4.27402592,-69.50591000
4.27658592,-69.50591000
4.27914592,-69.50591000
4.28170592,-69.50591000
4.28426592,-69.50591000
4.28682592,-69.50591000
4.28938592,-69.50591000
4.29194592,-69.50591000
4.29450592,-69.50591000
4.29706592,-69.50591000
4.29962592,-69.50591000
4.30218592,-69.50591000
4.30474592,-69.50591000
4.30730592,-69.50591000
4.30986592,-69.50591000
4.31242592,-69.50591000
4.31498592,-69.50591000
4.31754592,-69.50591000
4.32010592,-69.50591000
4.32266592,-69.50591000
4.32522592,-69.50591000
4.32778592,-69.50591000
4.33034592,-69.50591000
4.33290592,-69.50591000
4.33546592,-69.50591000
4.33802592,-69.50591000
4.34058592,-69.50591000
4.34314592,-69.50591000
4.34570592,-69.50591000
4.34826592,-69.50591000
4.35082592,-69.50591000
4.35338592,-69.50591000
4.35594592,-69.50591000
4.35850592,-69.50591000
4.36106592,-69.50591000
4.36362592,-69.50591000
4.36618592,-69.50591000
4.36874592,-69.50591000
4.37130592,-69.50591000
4.37386592,-69.50591000
4.37642592,-69.50591000
4.37898592,-69.50591000
4.38154592,-69.50591000
4.38410592,-69.50591000
4.38666592,-69.50591000
4.38922592,-69.50591000
4.39178592,-69.50591000
4.39434592,-69.50591000
4.39690592,-69.50591000
4.39946592,-69.50591000
4.40202592,-69.50591000
4.40458592,-69.50591000
4.40714592,-69.50591000
4.40970592,-69.50591000
4.41226592,-69.50591000
4.41482592,-69.50591000
4.41738592,-69.50591000
4.41994592,-69.50591000
4.42250592,-69.50591000
4.42506592,-69.50591000
4.42762592,-69.50591000
4.43018592,-69.50591000
4.43274592,-69.50591000
4.43530592,-69.50591000
4.43786592,-69.50591000
4.44042592,-69.50591000
4.44298592,-69.50591000
4.44554592,-69.50591000
4.44810592,-69.50591000
4.45066592,-69.50591000
4.45322592,-69.50591000
4.45578592,-69.50591000
4.45834592,-69.50591000
4.46090592,-69.50591000
4.46346592,-69.50591000
4.46602592,-69.50591000
4.46858592,-69.50591000
4.47114592,-69.50591000
4.47370592,-69.50591000
4.47626592,-69.50591000
4.47882592,-69.50591000
4.48138592,-69.50591000
4.48394592,-69.50591000
4.48650592,-69.50591000
4.48906592,-69.50591000
4.49162592,-69.50591000
4.49418592,-69.50591000
4.49674592,-69.50591000
4.49930592,-69.50591000
4.50186592,-69.50591000
4.50442592,-69.50591000
4.50698592,-69.50591000
4.50954592,-69.50591000
4.51210592,-69.50591000
4.51466592,-69.50591000
4.51722592,-69.50591000
4.51978592,-69.50591000
4.52234592,-69.50591000
4.52490592,-69.50591000
4.52746592,-69.50591000
4.53002592,-69.50591000
4.53258592,-69.50591000
4.53514592,-69.50591000
4.53770592,-69.50591000
4.54026592,-69.50591000
4.54282592,-69.50591000
4.54538592,-69.50591000
4.54794592,-69.50591000
4.55050592,-69.50591000
4.55306592,-69.50591000
4.55562592,-69.50591000
4.55818592,-69.50591000
4.56074592,-69.50591000
4.56330592,-69.50591000
4.56586592,-69.50591000
4.56842592,-65.03493000
4.57098592,-69.50591000
4.57354592,-69.50591000
4.57610592,-69.50591000
4.57866592,-69.50591000
4.58122592,-69.50591000
4.58378592,-69.50591000
4.58634592,-69.50591000
4.58890592,-69.50591000
4.59146592,-69.50591000
4.59402592,-69.50591000
4.59658592,-69.50591000
4.59914592,-69.50591000
4.60170592,-69.50591000
4.60426592,-69.50591000
4.60682592,-69.50591000
4.60938592,-69.50591000
4.61194592,-69.50591000
4.61450592,-69.50591000
4.61706592,-69.50591000
4.61962592,-69.50591000
4.62218592,-69.50591000
4.62474592,-69.50591000
4.62730592,-69.50591000
4.62986592,-69.50591000
4.63242592,-69.50591000
4.63498592,-69.50591000
4.63754592,-69.50591000
4.64010592,-69.50591000
4.64266592,-69.50591000
4.64522592,-69.50591000
4.64778592,-69.50591000
4.65034592,-69.50591000
4.65290592,-69.50591000
4.65546591,-69.50591000
4.65802591,-69.50591000
4.66058591,-69.50591000
4.66314591,-69.50591000
4.66570591,-69.50591000
4.66826591,-69.50591000
4.67082591,-69.50591000
4.67338591,-69.50591000
4.67594591,-69.50591000
4.67850591,-69.50591000
4.68106591,-69.50591000
4.68362591,-69.50591000
4.68618591,-69.50591000
4.68874591,-69.50591000
4.69130591,-69.50591000
4.69386591,-69.50591000
4.69642591,-69.50591000
4.69898591,-69.50591000
4.70154591,-69.50591000
4.70410591,-69.50591000
4.70666591,-69.50591000
4.70922591,-69.50591000
4.71178591,-69.50591000
4.71434591,-69.50591000
4.71690591,-69.50591000
4.71946591,-69.50591000
4.72202591,-69.50591000
4.72458591,-69.50591000
4.72714591,-69.50591000
4.72970591,-69.50591000
4.73226591,-69.50591000
4.73482591,-69.50591000
4.73738591,-69.50591000
4.73994591,-69.50591000
4.74250591,-69.50591000
4.74506591,-69.50591000
4.74762591,-69.50591000
4.75018591,-69.50591000
4.75274591,-69.50591000
4.75530591,-69.50591000
4.75786591,-69.50591000
4.76042591,-69.50591000
4.76298591,-69.50591000
4.76554591,-69.50591000
4.76810591,-69.50591000
4.77066591,-69.50591000
4.77322591,-69.50591000
4.77578591,-69.50591000
4.77834591,-69.50591000
4.78090591,-73.99212000
4.78346591,-69.50591000
4.78602591,-69.50591000
4.78858591,-69.50591000
4.79114591,-69.50591000
4.79370591,-69.50591000
4.79626591,-69.50591000
4.79882591,-69.50591000
4.80138591,-69.50591000
4.80394591,-69.50591000
4.80650591,-69.50591000
4.80906591,-69.50591000
4.81162591,-69.50591000
4.81418591,-69.50591000
4.81674591,-69.50591000
4.81930591,-73.99212000
4.82186591,-73.99212000
4.82442591,-69.50591000
4.82698591,-73.99212000
4.82954591,-73.99212000
4.83210591,-69.50591000
4.83466591,-69.50591000
4.83722591,-73.99212000
4.83978591,-69.50591000
4.84234591,-73.99212000
4.84490591,-73.99212000
4.84746591,-69.50591000
4.85002591,-73.99212000
4.85258591,-73.99212000
4.85514591,-73.99212000
4.85770591,-73.99212000
4.86026591,-69.50591000
4.86282591,-73.99212000
4.86538591,-73.99212000
4.86794591,-69.50591000
4.87050591,-69.50591000
4.87306591,-69.50591000
4.87562591,-69.50591000
4.87818591,-73.99212000
4.88074591,-69.50591000
4.88330591,-73.99212000
4.88586591,-73.99212000
4.88842591,-73.99212000
4.89098591,-69.50591000
4.89354591,-69.50591000
4.89610591,-69.50591000
4.89866591,-69.50591000
4.90122591,-73.99212000
4.90378591,-73.99212000
4.90634591,-69.50591000
4.90890591,-69.50591000
4.91146591,-69.50591000
4.91402591,-69.50591000
4.91658591,-73.99212000
4.91914591,-69.50591000
4.92170591,-73.99212000
4.92426591,-69.50591000
4.92682591,-73.99212000
4.92938591,-73.99212000
4.93194591,-69.50591000
4.93450591,-69.50591000
4.93706591,-69.50591000
4.93962591,-69.50591000
4.94218591,-69.50591000
4.94474591,-69.50591000
4.94730591,-69.50591000
4.94986591,-69.50591000
4.95242591,-69.50591000
4.95498591,-69.50591000
4.95754591,-73.99212000
4.96010591,-69.50591000
4.96266591,-69.50591000
4.96522591,-69.50591000
4.96778591,-73.99212000
4.97034591,-69.50591000
4.97290591,-69.50591000
4.97546591,-69.50591000
4.97802591,-69.50591000
4.98058591,-69.50591000
4.98314591,-69.50591000
4.98570591,-69.50591000
4.98826591,-69.50591000
4.99082591,-69.50591000
4.99338591,-69.50591000
4.99594591,-73.99212000
4.99850591,-69.50591000
5.00106591,-69.50591000
5.00362591,-69.50591000
5.00618591,-73.99212000
5.00874591,-69.50591000
5.01130591,-69.50591000
5.01386591,-69.50591000
5.01642591,-69.50591000
5.01898591,-69.50591000
5.02154591,-69.50591000
5.02410591,-69.50591000
5.02666591,-73.99212000
5.02922591,-73.99212000
5.03178591,-69.50591000
5.03434591,-69.50591000
5.03690591,-69.50591000
5.03946591,-69.50591000
5.04202591,-69.50591000
5.04458591,-69.50591000
5.04714591,-73.99212000
5.04970591,-73.99212000
5.05226591,-69.50591000
5.05482591,-73.99212000
5.05738591,-69.50591000
5.05994591,-73.99212000
5.06250591,-73.99212000
5.06506591,-69.50591000
5.06762591,-69.50591000
5.07018591,-69.50591000
5.07274591,-73.99212000
5.07530591,-73.99212000
5.07786591,-69.50591000
5.08042591,-73.99212000
5.08298591,-73.99212000
5.08554591,-73.99212000
5.08810591,-73.99212000
5.09066591,-73.99212000
5.09322591,-69.50591000
5.09578591,-69.50591000
5.09834591,-69.50591000
5.10090591,-69.50591000
5.10346591,-69.50591000
5.10602591,-69.50591000
5.10858591,-69.50591000
5.11114591,-69.50591000
5.11370591,-73.99212000
5.11626591,-69.50591000
5.11882591,-69.50591000
5.12138591,-69.50591000
5.12394591,-69.50591000
5.12650591,-69.50591000
5.12906591,-69.50591000
5.13162591,-69.50591000
5.13418591,-69.50591000
5.13674591,-69.50591000
5.13930591,-69.50591000
5.14186591,-69.50591000
5.14442591,-69.50591000
5.14698591,-69.50591000
5.14954591,-69.50591000
5.15210591,-69.50591000
5.15466591,-69.50591000
5.15722591,-73.99212000
5.15978591,-69.50591000
5.16234591,-69.50591000
5.16490591,-69.50591000
5.16746591,-69.50591000
5.17002591,-69.50591000
5.17258591,-69.50591000
5.17514591,-69.50591000
5.17770591,-69.50591000
5.18026591,-69.50591000
5.18282591,-73.99212000
5.18538591,-69.50591000
5.18794591,-69.50591000
5.19050591,-69.50591000
5.19306591,-69.50591000
5.19562591,-69.50591000
5.19818591,-69.50591000
5.20074591,-69.50591000
5.20330591,-69.50591000
5.20586591,-69.50591000
5.20842591,-69.50591000
5.21098591,-69.50591000
5.21354591,-69.50591000
5.21610591,-69.50591000
5.21866591,-69.50591000
5.22122591,-69.50591000
5.22378591,-69.50591000
5.22634591,-69.50591000
5.22890591,-69.50591000
5.23146591,-69.50591000
5.23402591,-69.50591000
5.23658591,-69.50591000
5.23914591,-69.50591000
5.24170591,-69.50591000
5.24426591,-69.50591000
5.24682591,-69.50591000
5.24938591,-69.50591000
5.25194591,-69.50591000
5.25450591,-69.50591000
5.25706591,-69.50591000
5.25962591,-69.50591000
5.26218591,-69.50591000
5.26474591,-69.50591000
5.26730591,-69.50591000
5.26986591,-69.50591000
5.27242591,-69.50591000
5.27498591,-69.50591000
5.27754591,-69.50591000
5.28010591,-69.50591000
5.28266591,-69.50591000
5.28522591,-69.50591000
5.28778591,-69.50591000
5.29034591,-69.50591000
5.29290591,-69.50591000
5.29546591,-69.50591000
5.29802591,-69.50591000
5.30058591,-69.50591000
5.30314591,-69.50591000
5.30570591,-69.50591000
5.30826591,-73.99212000
5.31082591,-73.99212000
5.31338591,-73.99212000
5.31594591,-69.50591000
5.31850591,-69.50591000
5.32106591,-69.50591000
5.32362591,-69.50591000
5.32618591,-69.50591000
5.32874591,-69.50591000
5.33130591,-69.50591000
5.33386591,-69.50591000
5.33642591,-69.50591000
5.33898591,-73.99212000
5.34154591,-69.50591000
5.34410591,-69.50591000
5.34666591,-69.50591000
5.34922591,-73.99212000
5.35178591,-69.50591000
5.35434591,-73.99212000
5.35690591,-69.50591000
5.35946591,-69.50591000
5.36202591,-69.50591000
5.36458591,-73.99212000
5.36714591,-69.50591000
5.36970591,-73.99212000
5.37226591,-69.50591000
5.37482591,-69.50591000
5.37738591,-73.99212000
5.37994591,-73.99212000
5.38250591,-73.99212000
5.38506591,-73.99212000
5.38762591,-73.99212000
5.39018591,-69.50591000
5.39274591,-73.99212000
5.39530591,-73.99212000
5.39786591,-69.50591000
5.40042591,-69.50591000
5.40298591,-73.99212000
5.40554591,-73.99212000
5.40810591,-73.99212000
5.41066591,-73.99212000
5.41322591,-73.99212000
5.41578591,-73.99212000
5.41834591,-73.99212000
5.42090591,-73.99212000
5.42346591,-73.99212000
5.42602591,-69.50591000
5.42858591,-73.99212000
5.43114591,-73.99212000
5.43370591,-69.50591000
5.43626591,-69.50591000
5.43882591,-69.50591000
5.44138591,-69.50591000
5.44394591,-73.99212000
5.44650591,-69.50591000
5.44906591,-69.50591000
5.45162591,-69.50591000
5.45418591,-73.99212000
5.45674591,-69.50591000
5.45930591,-73.99212000
5.46186591,-73.99212000
5.46442591,-73.99212000
5.46698591,-69.50591000
5.46954591,-73.99212000
5.47210591,-69.50591000
5.47466591,-73.99212000
5.47722591,-73.99212000
5.47978591,-73.99212000
5.48234591,-73.99212000
5.48490591,-73.99212000
5.48746591,-73.99212000
5.49002591,-69.50591000
5.49258591,-73.99212000
5.49514591,-69.50591000
5.49770591,-69.50591000
5.50026591,-69.50591000
5.50282591,-73.99212000
5.50538591,-73.99212000
5.50794591,-69.50591000
5.51050591,-69.50591000
5.51306591,-69.50591000
5.51562591,-73.99212000
5.51818591,-69.50591000
5.52074591,-69.50591000
5.52330591,-69.50591000
5.52586591,-69.50591000
5.52842591,-69.50591000
5.53098591,-69.50591000
5.53354591,-69.50591000
5.53610591,-69.50591000
5.53866591,-69.50591000
5.54122591,-73.99212000
5.54378591,-73.99212000
5.54634591,-69.50591000
5.54890591,-73.99212000
5.55146591,-73.99212000
5.55402591,-73.99212000
5.55658591,-69.50591000
5.55914591,-69.50591000
5.56170591,-69.50591000
5.56426591,-73.99212000
5.56682591,-69.50591000
5.56938591,-69.50591000
5.57194591,-73.99212000
5.57450591,-69.50591000
5.57706591,-69.50591000
5.57962591,-73.99212000
5.58218591,-69.50591000
5.58474591,-69.50591000
5.58730591,-73.99212000
5.58986591,-69.50591000
5.59242591,-69.50591000
5.59498591,-69.50591000
5.59754591,-69.50591000
5.60010591,-73.99212000
5.60266591,-69.50591000
5.60522591,-69.50591000
5.60778591,-69.50591000
5.61034591,-69.50591000
5.61290591,-69.50591000
5.61546591,-69.50591000
5.61802591,-69.50591000
5.62058591,-69.50591000
5.62314591,-73.99212000
5.62570591,-69.50591000
5.62826591,-69.50591000
5.63082591,-69.50591000
5.63338591,-69.50591000
5.63594591,-69.50591000
5.63850591,-69.50591000
5.64106591,-73.99212000
5.64362591,-69.50591000
5.64618591,-73.99212000
5.64874591,-69.50591000
5.65130591,-69.50591000
5.65386591,-73.99212000
5.65642591,-69.50591000
5.65898591,-69.50591000
5.66154591,-73.99212000
5.66410591,-73.99212000
5.66666591,-69.50591000
5.66922591,-73.99212000
5.67178591,-69.50591000
5.67434591,-69.50591000
5.67690591,-69.50591000
5.67946591,-69.50591000
5.68202591,-69.50591000
5.68458591,-69.50591000
5.68714591,-73.99212000
5.68970591,-69.50591000
5.69226591,-69.50591000
5.69482591,-69.50591000
5.69738591,-69.50591000
5.69994591,-69.50591000
5.70250591,-73.99212000
5.70506591,-69.50591000
5.70762591,-73.99212000
5.71018591,-73.99212000
5.71274591,-69.50591000
5.71530591,-69.50591000
5.71786591,-73.99212000
5.72042591,-73.99212000
5.72298591,-69.50591000
5.72554591,-73.99212000
5.72810591,-73.99212000
5.73066591,-69.50591000
5.73322591,-73.99212000
5.73578591,-69.50591000
5.73834591,-69.50591000
5.74090591,-69.50591000
5.74346591,-69.50591000
5.74602591,-73.99212000
5.74858591,-73.99212000
5.75114591,-69.50591000
5.75370591,-69.50591000
5.75626591,-69.50591000
5.75882591,-69.50591000
5.76138591,-73.99212000
5.76394591,-73.99212000
5.76650591,-69.50591000
5.76906591,-73.99212000
5.77162591,-69.50591000
5.77418591,-73.99212000
5.77674591,-73.99212000
5.77930591,-69.50591000
5.78186591,-73.99212000
5.78442591,-73.99212000
5.78698591,-73.99212000
5.78954591,-73.99212000
5.79210591,-69.50591000
5.79466591,-69.50591000
5.79722591,-73.99212000
5.79978591,-69.50591000
5.80234591,-69.50591000
5.80490591,-69.50591000
5.80746591,-69.50591000
5.81002591,-69.50591000
5.81258591,-69.50591000
5.81514591,-73.99212000
5.81770591,-69.50591000
5.82026591,-73.99212000
5.82282591,-73.99212000
5.82538591,-73.99212000
5.82794591,-69.50591000
5.83050591,-73.99212000
5.83306591,-69.50591000
5.83562591,-73.99212000
5.83818591,-69.50591000
5.84074591,-69.50591000
5.84330591,-69.50591000
5.84586591,-73.99212000
5.84842591,-73.99212000
5.85098591,-73.99212000
5.85354591,-73.99212000
5.85610591,-73.99212000
5.85866591,-73.99212000
5.86122591,-69.50591000
5.86378591,-73.99212000
5.86634591,-69.50591000
5.86890591,-73.99212000
5.87146591,-73.99212000
5.87402591,-73.99212000
5.87658591,-73.99212000
5.87914591,-69.50591000
5.88170591,-73.99212000
5.88426591,-69.50591000
5.88682591,-73.99212000
5.88938591,-69.50591000
5.89194591,-73.99212000
5.89450591,-69.50591000
5.89706591,-69.50591000
5.89962591,-69.50591000
5.90218591,-73.99212000
5.90474591,-69.50591000
5.90730591,-73.99212000
5.90986591,-73.99212000
5.91242591,-69.50591000
5.91498591,-69.50591000
5.91754591,-69.50591000
5.92010591,-73.99212000
5.92266591,-73.99212000
5.92522591,-69.50591000
5.92778591,-69.50591000
5.93034591,-69.50591000
5.93290591,-73.99212000
5.93546591,-73.99212000
5.93802591,-69.50591000
5.94058591,-69.50591000
5.94314591,-73.99212000
5.94570591,-69.50591000
5.94826591,-73.99212000
5.95082591,-73.99212000
5.95338591,-69.50591000
5.95594591,-69.50591000
5.95850591,-69.50591000
5.96106591,-69.50591000
5.96362591,-69.50591000
5.96618591,-73.99212000
5.96874591,-69.50591000
5.97130591,-73.99212000
5.97386591,-73.99212000
5.97642591,-69.50591000
5.97898591,-73.99212000
5.98154591,-73.99212000
5.98410591,-73.99212000
5.98666591,-69.50591000
5.98922591,-73.99212000
5.99178591,-69.50591000
5.99434591,-73.99212000
5.99690591,-69.50591000
5.99946591,-73.99212000
6.00202591,-69.50591000
6.00458591,-73.99212000
6.00714591,-73.99212000
6.00970591,-73.99212000
6.01226591,-69.50591000
6.01482591,-73.99212000
6.01738591,-73.99212000
6.01994591,-73.99212000
6.02250591,-73.99212000
6.02506591,-73.99212000
6.02762591,-73.99212000
6.03018591,-73.99212000
6.03274591,-73.99212000
6.03530591,-73.99212000
6.03786591,-73.99212000
6.04042591,-73.99212000
6.04298591,-73.99212000
6.04554591,-73.99212000
6.04810591,-73.99212000
6.05066591,-73.99212000
6.05322591,-73.99212000
6.05578591,-73.99212000
6.05834591,-69.50591000
6.06090591,-73.99212000
6.06346591,-69.50591000
6.06602591,-73.99212000
6.06858591,-73.99212000
6.07114591,-73.99212000
6.07370591,-73.99212000
6.07626591,-73.99212000
6.07882591,-73.99212000
6.08138591,-73.99212000
6.08394591,-73.99212000
6.08650591,-73.99212000
6.08906591,-73.99212000
6.09162591,-73.99212000
6.09418591,-73.99212000
6.09674591,-69.50591000
6.09930591,-73.99212000
6.10186591,-73.99212000
6.10442591,-73.99212000
6.10698591,-73.99212000
6.10954591,-69.50591000
6.11210591,-73.99212000
6.11466591,-73.99212000
6.11722591,-73.99212000
6.11978591,-73.99212000
6.12234591,-73.99212000
6.12490591,-73.99212000
6.12746591,-73.99212000
6.13002591,-73.99212000
6.13258591,-73.99212000
6.13514591,-73.99212000
6.13770591,-73.99212000
6.14026591,-73.99212000
6.14282591,-69.50591000
6.14538591,-73.99212000
6.14794591,-73.99212000
6.15050591,-73.99212000
6.15306591,-73.99212000
6.15562591,-73.99212000
6.15818591,-73.99212000
6.16074591,-73.99212000
6.16330591,-73.99212000
6.16586591,-73.99212000
6.16842591,-73.99212000
6.17098591,-73.99212000
6.17354591,-73.99212000
6.17610591,-73.99212000
6.17866591,-69.50591000
6.18122591,-73.99212000
6.18378591,-73.99212000
6.18634591,-73.99212000
6.18890591,-73.99212000
6.19146591,-73.99212000
6.19402591,-73.99212000
6.19658591,-73.99212000
6.19914591,-73.99212000
6.20170591,-73.99212000
6.20426591,-73.99212000
6.20682591,-73.99212000
6.20938591,-73.99212000
6.21194591,-73.99212000
6.21450591,-73.99212000
6.21706591,-69.50591000
6.21962591,-73.99212000
6.22218591,-69.50591000
6.22474591,-73.99212000
6.22730591,-73.99212000
6.22986591,-73.99212000
6.23242591,-73.99212000
6.23498591,-69.50591000
6.23754591,-73.99212000
6.24010591,-69.50591000
6.24266591,-69.50591000
6.24522591,-73.99212000
6.24778591,-73.99212000
6.25034591,-73.99212000
6.25290591,-73.99212000
6.25546591,-73.99212000
6.25802591,-69.50591000
6.26058591,-73.99212000
6.26314591,-69.50591000
6.26570591,-73.99212000
6.26826591,-69.50591000
6.27082591,-69.50591000
6.27338591,-69.50591000
6.27594591,-73.99212000
6.27850591,-69.50591000
6.28106591,-73.99212000
6.28362591,-69.50591000
6.28618591,-69.50591000
6.28874591,-69.50591000
6.29130591,-69.50591000
6.29386591,-69.50591000
6.29642591,-69.50591000
6.29898591,-73.99212000
6.30154590,-73.99212000
6.30410590,-73.99212000
6.30666590,-69.50591000
6.30922590,-69.50591000
6.31178590,-73.99212000
6.31434590,-73.99212000
6.31690590,-69.50591000
6.31946590,-73.99212000
6.32202590,-73.99212000
6.32458590,-73.99212000
6.32714590,-69.50591000
6.32970590,-69.50591000
6.33226590,-73.99212000
6.33482590,-73.99212000
6.33738590,-73.99212000
6.33994590,-73.99212000
6.34250590,-69.50591000
6.34506590,-69.50591000
6.34762590,-69.50591000
6.35018590,-69.50591000
6.35274590,-69.50591000
6.35530590,-73.99212000
6.35786590,-69.50591000
6.36042590,-69.50591000
6.36298590,-69.50591000
6.36554590,-69.50591000
6.36810590,-73.99212000
6.37066590,-69.50591000
6.37322590,-69.50591000
6.37578590,-73.99212000
6.37834590,-73.99212000
6.38090590,-73.99212000
6.38346590,-69.50591000
6.38602590,-69.50591000
6.38858590,-69.50591000
6.39114590,-73.99212000
6.39370590,-69.50591000
6.39626590,-73.99212000
6.39882590,-69.50591000
6.40138590,-69.50591000
6.40394590,-73.99212000
6.40650590,-69.50591000
6.40906590,-69.50591000
6.41162590,-69.50591000
6.41418590,-73.99212000
6.41674590,-69.50591000
6.41930590,-69.50591000
6.42186590,-69.50591000
6.42442590,-73.99212000
6.42698590,-73.99212000
6.42954590,-69.50591000
6.43210590,-73.99212000
6.43466590,-69.50591000
6.43722590,-73.99212000
6.43978590,-73.99212000
6.44234590,-73.99212000
6.44490590,-73.99212000
6.44746590,-73.99212000
6.45002590,-73.99212000
6.45258590,-73.99212000
6.45514590,-73.99212000
6.45770590,-69.50591000
6.46026590,-73.99212000
6.46282590,-69.50591000
6.46538590,-69.50591000
6.46794590,-69.50591000
6.47050590,-73.99212000
6.47306590,-69.50591000
6.47562590,-73.99212000
6.47818590,-73.99212000
6.48074590,-69.50591000
6.48330590,-73.99212000
6.48586590,-69.50591000
6.48842590,-69.50591000
6.49098590,-69.50591000
6.49354590,-73.99212000
6.49610590,-69.50591000
6.49866590,-69.50591000
6.50122590,-69.50591000
6.50378590,-69.50591000
6.50634590,-69.50591000
6.50890590,-69.50591000
6.51146590,-73.99212000
6.51402590,-69.50591000
6.51658590,-73.99212000
6.51914590,-69.50591000
6.52170590,-73.99212000
6.52426590,-69.50591000
6.52682590,-69.50591000
6.52938590,-69.50591000
6.53194590,-69.50591000
6.53450590,-69.50591000
6.53706590,-73.99212000
6.53962590,-69.50591000
6.54218590,-69.50591000
6.54474590,-69.50591000
6.54730590,-69.50591000
6.54986590,-73.99212000
6.55242590,-69.50591000
6.55498590,-69.50591000
6.55754590,-69.50591000
6.56010590,-69.50591000
6.56266590,-69.50591000
6.56522590,-69.50591000
6.56778590,-69.50591000
6.57034590,-69.50591000
6.57290590,-69.50591000
6.57546590,-69.50591000
6.57802590,-69.50591000
6.58058590,-69.50591000
6.58314590,-69.50591000
6.58570590,-69.50591000
6.58826590,-69.50591000
6.59082590,-69.50591000
6.59338590,-73.99212000
6.59594590,-73.99212000
6.59850590,-69.50591000
6.60106590,-69.50591000
6.60362590,-69.50591000
6.60618590,-73.99212000
6.60874590,-73.99212000
6.61130590,-69.50591000
6.61386590,-73.99212000
6.61642590,-69.50591000
6.61898590,-73.99212000
6.62154590,-73.99212000
6.62410590,-69.50591000
6.62666590,-73.99212000
6.62922590,-69.50591000
6.63178590,-73.99212000
6.63434590,-69.50591000
6.63690590,-69.50591000
6.63946590,-69.50591000
6.64202590,-73.99212000
6.64458590,-69.50591000
6.64714590,-73.99212000
6.64970590,-73.99212000
6.65226590,-73.99212000
6.65482590,-69.50591000
6.65738590,-73.99212000
6.65994590,-73.99212000
6.66250590,-73.99212000
6.66506590,-73.99212000
6.66762590,-73.99212000
6.67018590,-73.99212000
6.67274590,-73.99212000
6.67530590,-73.99212000
6.67786590,-73.99212000
6.68042590,-78.46308000
6.68298590,-73.99212000
6.68554590,-73.99212000
6.68810590,-73.99212000
6.69066590,-78.46308000
6.69322590,-73.99212000
6.69578590,-73.99212000
6.69834590,-73.99212000
6.70090590,-73.99212000
6.70346590,-78.46308000
6.70602590,-73.99212000
6.70858590,-78.46308000
6.71114590,-73.99212000
6.71370590,-78.46308000
6.71626590,-78.46308000
6.71882590,-73.99212000
6.72138590,-78.46308000
6.72394590,-78.46308000
6.72650590,-73.99212000
6.72906590,-78.46308000
6.73162590,-78.46308000
6.73418590,-78.46308000
6.73674590,-73.99212000
6.73930590,-78.46308000
6.74186590,-73.99212000
6.74442590,-78.46308000
6.74698590,-78.46308000
6.74954590,-78.46308000
6.75210590,-78.46308000
6.75466590,-78.46308000
6.75722590,-78.46308000
6.75978590,-78.46308000
6.76234590,-78.46308000
6.76490590,-78.46308000
6.76746590,-78.46308000
6.77002590,-78.46308000
6.77258590,-78.46308000
6.77514590,-78.46308000
6.77770590,-78.46308000
6.78026590,-78.46308000
6.78282590,-78.46308000
6.78538590,-78.46308000
6.78794590,-78.46308000
6.79050590,-78.46308000
6.79306590,-78.46308000
6.79562590,-78.46308000
6.79818590,-78.46308000
6.80074590,-82.93404000
6.80330590,-78.46308000
6.80586590,-78.46308000
6.80842590,-82.93404000
6.81098590,-78.46308000
6.81354590,-82.93404000
6.81610590,-82.93404000
6.81866590,-82.93404000
6.82122590,-82.93404000
6.82378590,-82.93404000
6.82634590,-82.93404000
6.82890590,-82.93404000
6.83146590,-82.93404000
6.83402590,-82.93404000
6.83658590,-87.40501000
6.83914590,-82.93404000
6.84170590,-82.93404000
6.84426590,-87.40501000
6.84682590,-87.40501000
6.84938590,-87.40501000
6.85194590,-87.40501000
6.85450590,-87.40501000
6.85706590,-87.40501000
6.85962590,-87.40501000
6.86218590,-87.40501000
6.86474590,-87.40501000
6.86730590,-87.40501000
6.86986590,-87.40501000
6.87242590,-87.40501000
6.87498590,-87.40501000
6.87754590,-87.40501000
6.88010590,-87.40501000
6.88266590,-91.87596000
6.88522590,-87.40501000
6.88778590,-91.87596000
6.89034590,-87.40501000
6.89290590,-91.87596000
6.89546590,-96.34693000
6.89802590,-96.34693000
6.90058590,-91.87596000
6.90314590,-96.34693000
6.90570590,-96.34693000
6.90826590,-96.34693000
6.91082590,-96.34693000
6.91338590,-96.34693000
6.91594590,-96.34693000
6.91850590,-96.34693000
6.92106590,-96.34693000
6.92362590,-96.34693000
6.92618590,-96.34693000
6.92874590,-96.34693000
6.93130590,-100.81790000
6.93386590,-96.34693000
6.93642590,-96.34693000
6.93898590,-100.81790000
6.94154590,-100.81790000
6.94410590,-100.81790000
6.94666590,-100.81790000
6.94922590,-105.28880000
6.95178590,-100.81790000
6.95434590,-100.81790000
6.95690590,-100.81790000
6.95946590,-105.28880000
6.96202590,-105.28880000
6.96458590,-105.28880000
6.96714590,-105.28880000
6.96970590,-105.28880000
6.97226590,-105.28880000
6.97482590,-105.28880000
6.97738590,-105.28880000
6.97994590,-105.28880000
6.98250590,-105.28880000
6.98506590,-109.75980000
6.98762590,-105.28880000
6.99018590,-109.75980000
6.99274590,-109.75980000
6.99530590,-105.28880000
6.99786590,-105.28880000
7.00042590,-105.28880000
7.00298590,-109.75980000
7.00554590,-109.75980000
7.00810590,-109.75980000
7.01066590,-114.23080000
7.01322590,-109.75980000
7.01578590,-109.75980000
7.01834590,-114.23080000
7.02090590,-114.23080000
7.02346590,-114.23080000
7.02602590,-114.23080000
7.02858590,-114.23080000
7.03114590,-114.23080000
7.03370590,-114.23080000
7.03626590,-114.23080000
7.03882590,-114.23080000
7.04138590,-114.23080000
7.04394590,-114.23080000
7.04650590,-114.23080000
7.04906590,-118.70170000
7.05162590,-114.23080000
7.05418590,-114.23080000
7.05674590,-114.23080000
7.05930590,-114.23080000
7.06186590,-114.23080000
7.06442590,-118.70170000
7.06698590,-118.70170000
7.06954590,-118.70170000
7.07210590,-118.70170000
7.07466590,-118.70170000
7.07722590,-118.70170000
7.07978590,-118.70170000
7.08234590,-118.70170000
7.08490590,-118.70170000
7.08746590,-118.70170000
7.09002590,-118.70170000
7.09258590,-118.70170000
7.09514590,-118.70170000
7.09770590,-118.70170000
7.10026590,-118.70170000
7.10282590,-123.17270000
7.10538590,-123.17270000
7.10794590,-118.70170000
7.11050590,-118.70170000
7.11306590,-123.17270000
7.11562590,-118.70170000
7.11818590,-118.70170000
7.12074590,-118.70170000
7.12330590,-123.17270000
7.12586590,-118.70170000
7.12842590,-118.70170000
7.13098590,-118.70170000
7.13354590,-118.70170000
7.13610590,-123.17270000
7.13866590,-118.70170000
7.14122590,-118.70170000
7.14378590,-123.17270000
7.14634590,-118.70170000
7.14890590,-123.17270000
7.15146590,-123.17270000
7.15402590,-123.17270000
7.15658590,-123.17270000
7.15914590,-123.17270000
7.16170590,-123.17270000
7.16426590,-118.70170000
7.16682590,-123.17270000
7.16938590,-118.70170000
7.17194590,-118.70170000
7.17450590,-123.17270000
7.17706590,-123.17270000
7.17962590,-123.17270000
7.18218590,-118.70170000
7.18474590,-123.17270000
7.18730590,-123.17270000
7.18986590,-118.70170000
7.19242590,-123.17270000
7.19498590,-118.70170000
7.19754590,-118.70170000
7.20010590,-123.17270000
7.20266590,-118.70170000
7.20522590,-123.17270000
7.20778590,-118.70170000
7.21034590,-118.70170000
7.21290590,-118.70170000
7.21546590,-118.70170000
7.21802590,-118.70170000
7.22058590,-118.70170000
7.22314590,-118.70170000
7.22570590,-118.70170000
7.22826590,-118.70170000
7.23082590,-118.70170000
7.23338590,-118.70170000
7.23594590,-118.70170000
7.23850590,-118.70170000
7.24106590,-118.70170000
7.24362590,-118.70170000
7.24618590,-118.70170000
7.24874590,-114.23080000
7.25130590,-114.23080000
7.25386590,-118.70170000
7.25642590,-114.23080000
7.25898590,-114.23080000
7.26154590,-114.23080000
7.26410590,-114.23080000
7.26666590,-114.23080000
7.26922590,-114.23080000
7.27178590,-114.23080000
7.27434590,-114.23080000
7.27690590,-114.23080000
7.27946590,-114.23080000
7.28202590,-114.23080000
7.28458590,-114.23080000
7.28714590,-114.23080000
7.28970590,-114.23080000
7.29226590,-114.23080000
7.29482590,-114.23080000
7.29738590,-114.23080000
7.29994590,-114.23080000
7.30250590,-114.23080000
7.30506590,-114.23080000
7.30762590,-109.75980000
7.31018590,-114.23080000
7.31274590,-109.75980000
7.31530590,-114.23080000
7.31786590,-109.75980000
7.32042590,-114.23080000
7.32298590,-109.75980000
7.32554590,-109.75980000
7.32810590,-109.75980000
7.33066590,-109.75980000
7.33322590,-109.75980000
7.33578590,-105.28880000
7.33834590,-105.28880000
7.34090590,-105.28880000
7.34346590,-105.28880000
7.34602590,-105.28880000
7.34858590,-105.28880000
7.35114590,-105.28880000
7.35370590,-105.28880000
7.35626590,-105.28880000
7.35882590,-105.28880000
7.36138590,-105.28880000
7.36394590,-105.28880000
7.36650590,-105.28880000
7.36906590,-105.28880000
7.37162590,-105.28880000
7.37418590,-105.28880000
7.37674590,-105.28880000
7.37930590,-105.28880000
7.38186590,-105.28880000
7.38442590,-105.28880000
7.38698590,-105.28880000
7.38954590,-105.28880000
7.39210590,-100.81790000
7.39466590,-100.81790000
7.39722590,-100.81790000
7.39978590,-100.81790000
7.40234590,-100.81790000
7.40490590,-100.81790000
7.40746590,-100.81790000
7.41002590,-96.34693000
7.41258590,-100.81790000
7.41514590,-96.34693000
7.41770590,-96.34693000
7.42026590,-96.34693000
7.42282590,-100.81790000
7.42538590,-96.34693000
7.42794590,-100.81790000
7.43050590,-96.34693000
7.43306590,-96.34693000
7.43562590,-96.34693000
7.43818590,-96.34693000
7.44074590,-96.34693000
7.44330590,-96.34693000
7.44586590,-96.34693000
7.44842590,-96.34693000
7.45098590,-96.34693000
7.45354590,-96.34693000
7.45610590,-96.34693000
7.45866590,-96.34693000
7.46122590,-96.34693000
7.46378590,-91.87596000
7.46634590,-91.87596000
7.46890590,-96.34693000
7.47146590,-91.87596000
7.47402590,-87.40501000
7.47658590,-96.34693000
7.47914590,-87.40501000
7.48170590,-91.87596000
7.48426590,-91.87596000
7.48682590,-87.40501000
7.48938590,-87.40501000
7.49194590,-87.40501000
7.49450590,-87.40501000
7.49706590,-87.40501000
7.49962590,-87.40501000
7.50218590,-91.87596000
7.50474590,-87.40501000
7.50730590,-87.40501000
7.50986590,-87.40501000
7.51242590,-87.40501000
7.51498590,-87.40501000
7.51754590,-87.40501000
7.52010590,-87.40501000
7.52266590,-87.40501000
7.52522590,-87.40501000
7.52778590,-87.40501000
7.53034590,-87.40501000
7.53290590,-87.40501000
7.53546590,-82.93404000
7.53802590,-87.40501000
7.54058590,-87.40501000
7.54314590,-87.40501000
7.54570590,-82.93404000
7.54826590,-82.93404000
7.55082590,-82.93404000
7.55338590,-82.93404000
7.55594590,-82.93404000
7.55850590,-82.93404000
7.56106590,-82.93404000
7.56362590,-82.93404000
7.56618590,-82.93404000
7.56874590,-82.93404000
7.57130590,-82.93404000
7.57386590,-82.93404000
7.57642590,-82.93404000
7.57898590,-82.93404000
7.58154590,-82.93404000
7.58410590,-82.93404000
7.58666590,-82.93404000
7.58922590,-82.93404000
7.59178590,-78.46308000
7.59434590,-82.93404000
7.59690590,-78.46308000
7.59946590,-78.46308000
7.60202590,-78.46308000
7.60458590,-78.46308000
7.60714590,-78.46308000
7.60970590,-78.46308000
7.61226590,-78.46308000
7.61482590,-78.46308000
7.61738590,-78.46308000
7.61994590,-78.46308000
7.62250590,-78.46308000
7.62506590,-78.46308000
7.62762590,-78.46308000
7.63018590,-78.46308000
7.63274590,-78.46308000
7.63530590,-78.46308000
7.63786590,-78.46308000
7.64042590,-78.46308000
7.64298590,-78.46308000
7.64554590,-78.46308000
7.64810590,-78.46308000
7.65066590,-78.46308000
7.65322590,-78.46308000
7.65578590,-78.46308000
7.65834590,-78.46308000
7.66090590,-78.46308000
7.66346590,-78.46308000
7.66602590,-78.46308000
7.66858590,-73.99212000
7.67114590,-78.46308000
7.67370590,-73.99212000
7.67626590,-73.99212000
7.67882590,-78.46308000
7.68138590,-73.99212000
7.68394590,-73.99212000
7.68650590,-73.99212000
7.68906590,-78.46308000
7.69162590,-73.99212000
7.69418590,-73.99212000
7.69674590,-73.99212000
7.69930590,-73.99212000
7.70186590,-73.99212000
7.70442590,-73.99212000
7.70698590,-73.99212000
7.70954590,-73.99212000
7.71210590,-73.99212000
7.71466590,-73.99212000
7.71722590,-73.99212000
7.71978590,-69.50591000
7.72234590,-73.99212000
7.72490590,-73.99212000
7.72746590,-69.50591000
7.73002590,-69.50591000
7.73258590,-73.99212000
7.73514590,-73.99212000
7.73770590,-69.50591000
7.74026590,-69.50591000
7.74282590,-69.50591000
7.74538590,-69.50591000
7.74794590,-69.50591000
7.75050590,-73.99212000
7.75306590,-69.50591000
7.75562590,-73.99212000
7.75818590,-69.50591000
7.76074590,-73.99212000
7.76330590,-69.50591000
7.76586590,-73.99212000
7.76842590,-73.99212000
7.77098590,-73.99212000
7.77354590,-73.99212000
7.77610590,-69.50591000
7.77866590,-73.99212000
7.78122590,-73.99212000
7.78378590,-73.99212000
7.78634590,-73.99212000
7.78890590,-69.50591000
7.79146590,-69.50591000
7.79402590,-69.50591000
7.79658590,-73.99212000
7.79914590,-69.50591000
7.80170590,-69.50591000
7.80426590,-69.50591000
7.80682590,-69.50591000
7.80938590,-69.50591000
7.81194590,-69.50591000
7.81450590,-69.50591000
7.81706590,-69.50591000
7.81962590,-69.50591000
7.82218590,-69.50591000
7.82474590,-69.50591000
7.82730590,-69.50591000
7.82986590,-69.50591000
7.83242590,-69.50591000
7.83498590,-69.50591000
7.83754590,-69.50591000
7.84010590,-69.50591000
7.84266590,-69.50591000
7.84522590,-69.50591000
7.84778590,-69.50591000
7.85034590,-65.03493000
7.85290590,-69.50591000
7.85546590,-65.03493000
7.85802590,-65.03493000
7.86058590,-65.03493000
7.86314590,-65.03493000
7.86570590,-65.03493000
7.86826590,-65.03493000
7.87082590,-65.03493000
7.87338590,-65.03493000
7.87594590,-65.03493000
7.87850590,-65.03493000
7.88106590,-60.56398000
7.88362590,-60.56398000
7.88618590,-60.56398000
7.88874590,-60.56398000
7.89130590,-60.56398000
7.89386590,-60.56398000
7.89642590,-60.56398000
7.89898590,-60.56398000
7.90154590,-60.56398000
7.90410590,-60.56398000
7.90666590,-60.56398000
7.90922590,-56.09302000
7.91178590,-56.09302000
7.91434590,-56.09302000
7.91690590,-56.09302000
7.91946590,-51.62206000
7.92202590,-51.62206000
7.92458590,-51.62206000
7.92714590,-51.62206000
7.92970590,-51.62206000
7.93226590,-51.62206000
7.93482590,-51.62206000
7.93738590,-51.62206000
7.93994590,-51.62206000
7.94250590,-51.62206000
7.94506590,-51.62206000
7.94762589,-51.62206000
7.95018589,-51.62206000
7.95274589,-47.15109000
7.95530589,-47.15109000
7.95786589,-47.15109000
7.96042589,-42.68013000
7.96298589,-42.68013000
7.96554589,-42.68013000
7.96810589,-42.68013000
7.97066589,-42.68013000
7.97322589,-42.68013000
7.97578589,-42.68013000
7.97834589,-42.68013000
7.98090589,-42.68013000
7.98346589,-38.20917000
7.98602589,-38.20917000
7.98858589,-38.20917000
7.99114589,-38.20917000
7.99370589,-33.73821000
7.99626589,-33.73821000
7.99882589,-33.73821000
8.00138589,-33.73821000
8.00394589,-33.73821000
8.00650589,-33.73821000
8.00906589,-33.73821000
8.01162589,-33.73821000
8.01418589,-33.73821000
8.01674589,-33.73821000
8.01930589,-33.73821000
8.02186589,-33.73821000
8.02442589,-33.73821000
8.02698589,-29.26725000
8.02954589,-29.26725000
8.03210589,-29.26725000
8.03466589,-29.26725000
8.03722589,-29.26725000
8.03978589,-24.79629000
8.04234589,-29.26725000
8.04490589,-29.26725000
8.04746589,-24.79629000
8.05002589,-24.79629000
8.05258589,-24.79629000
8.05514589,-24.79629000
8.05770589,-24.79629000
8.06026589,-24.79629000
8.06282589,-24.79629000
8.06538589,-24.79629000
8.06794589,-24.79629000
8.07050589,-24.79629000
8.07306589,-24.79629000
8.07562589,-20.32533000
8.07818589,-20.32533000
8.08074589,-20.32533000
8.08330589,-15.85437000
8.08586589,-20.32533000
8.08842589,-15.85437000
8.09098589,-15.85437000
8.09354589,-15.85437000
8.09610589,-20.32533000
8.09866589,-15.85437000
8.10122589,-15.85437000
8.10378589,-15.85437000
8.10634589,-15.85437000
8.10890589,-15.85437000
8.11146589,-15.85437000
8.11402589,-15.85437000
8.11658589,-15.85437000
8.11914589,-15.85437000
8.12170589,-15.85437000
8.12426589,-15.85437000
8.12682589,-15.85437000
8.12938589,-15.85437000
8.13194589,-15.85437000
8.13450589,-15.85437000
8.13706589,-15.85437000
8.13962589,-15.85437000
8.14218589,-15.85437000
8.14474589,-15.85437000
8.14730589,-15.85437000
8.14986589,-15.85437000
8.15242589,-15.85437000
8.15498589,-15.85437000
8.15754589,-15.85437000
8.16010589,-15.85437000
8.16266589,-15.85437000
8.16522589,-15.85437000
8.16778589,-11.38340000
8.17034589,-15.85437000
8.17290589,-15.85437000
8.17546589,-15.85437000
8.17802589,-15.85437000
8.18058589,-11.38340000
8.18314589,-11.38340000
8.18570589,-11.38340000
8.18826589,-11.38340000
8.19082589,-15.85437000
8.19338589,-15.85437000
8.19594589,-15.85437000
8.19850589,-15.85437000
8.20106589,-15.85437000
8.20362589,-15.85437000
8.20618589,-11.38340000
8.20874589,-15.85437000
8.21130589,-15.85437000
8.21386589,-15.85437000
8.21642589,-15.85437000
8.21898589,-15.85437000
8.22154589,-11.38340000
8.22410589,-15.85437000
8.22666589,-15.85437000
8.22922589,-15.85437000
8.23178589,-15.85437000
8.23434589,-15.85437000
8.23690589,-15.85437000
8.23946589,-15.85437000
8.24202589,-15.85437000
8.24458589,-15.85437000
8.24714589,-15.85437000
8.24970589,-15.85437000
8.25226589,-15.85437000
8.25482589,-15.85437000
8.25738589,-15.85437000
8.25994589,-15.85437000
8.26250589,-15.85437000
8.26506589,-15.85437000
8.26762589,-15.85437000
8.27018589,-15.85437000
8.27274589,-15.85437000
8.27530589,-15.85437000
8.27786589,-15.85437000
8.28042589,-15.85437000
8.28298589,-15.85437000
8.28554589,-15.85437000
8.28810589,-15.85437000
8.29066589,-15.85437000
8.29322589,-15.85437000
8.29578589,-15.85437000
8.29834589,-15.85437000
8.30090589,-15.85437000
8.30346589,-15.85437000
8.30602589,-15.85437000
8.30858589,-15.85437000
8.31114589,-15.85437000
8.31370589,-15.85437000
8.31626589,-15.85437000
8.31882589,-15.85437000
8.32138589,-15.85437000
8.32394589,-20.32533000
8.32650589,-15.85437000
8.32906589,-20.32533000
8.33162589,-20.32533000
8.33418589,-20.32533000
8.33674589,-20.32533000
8.33930589,-20.32533000
8.34186589,-15.85437000
8.34442589,-20.32533000
8.34698589,-20.32533000
8.34954589,-20.32533000
8.35210589,-20.32533000
8.35466589,-20.32533000
8.35722589,-20.32533000
8.35978589,-24.79629000
8.36234589,-20.32533000
8.36490589,-24.79629000
8.36746589,-20.32533000
8.37002589,-24.79629000
8.37258589,-24.79629000
8.37514589,-24.79629000
8.37770589,-24.79629000
8.38026589,-24.79629000
8.38282589,-24.79629000
8.38538589,-24.79629000
8.38794589,-24.79629000
8.39050589,-24.79629000
8.39306589,-24.79629000
8.39562589,-24.79629000
8.39818589,-24.79629000
8.40074589,-24.79629000
8.40330589,-24.79629000
8.40586589,-24.79629000
8.40842589,-24.79629000
8.41098589,-24.79629000
8.41354589,-29.26725000
8.41610589,-24.79629000
8.41866589,-24.79629000
8.42122589,-24.79629000
8.42378589,-24.79629000
8.42634589,-24.79629000
8.42890589,-29.26725000
8.43146589,-29.26725000
8.43402589,-24.79629000
8.43658589,-29.26725000
8.43914589,-29.26725000
8.44170589,-29.26725000
8.44426589,-29.26725000
8.44682589,-29.26725000
8.44938589,-29.26725000
8.45194589,-29.26725000
8.45450589,-33.73821000
8.45706589,-33.73821000
8.45962589,-33.73821000
8.46218589,-33.73821000
8.46474589,-33.73821000
8.46730589,-29.26725000
8.46986589,-33.73821000
8.47242589,-33.73821000
8.47498589,-33.73821000
8.47754589,-33.73821000
8.48010589,-33.73821000
8.48266589,-33.73821000
8.48522589,-33.73821000
8.48778589,-33.73821000
8.49034589,-33.73821000
8.49290589,-38.20917000
8.49546589,-33.73821000
8.49802589,-33.73821000
8.50058589,-33.73821000
8.50314589,-33.73821000
8.50570589,-33.73821000
8.50826589,-38.20917000
8.51082589,-33.73821000
8.51338589,-33.73821000
8.51594589,-38.20917000
8.51850589,-33.73821000
8.52106589,-38.20917000
8.52362589,-38.20917000
8.52618589,-38.20917000
8.52874589,-38.20917000
8.53130589,-38.20917000
8.53386589,-38.20917000
8.53642589,-42.68013000
8.53898589,-42.68013000
8.54154589,-42.68013000
8.54410589,-42.68013000
8.54666589,-42.68013000
8.54922589,-42.68013000
8.55178589,-42.68013000
8.55434589,-42.68013000
8.55690589,-42.68013000
8.55946589,-42.68013000
8.56202589,-42.68013000
8.56458589,-42.68013000
8.56714589,-42.68013000
8.56970589,-42.68013000
8.57226589,-47.15109000
8.57482589,-42.68013000
8.57738589,-47.15109000
8.57994589,-47.15109000
8.58250589,-47.15109000
8.58506589,-47.15109000
8.58762589,-47.15109000
8.59018589,-47.15109000
8.59274589,-47.15109000
8.59530589,-51.62206000
8.59786589,-51.62206000
8.60042589,-47.15109000
8.60298589,-51.62206000
8.60554589,-51.62206000
8.60810589,-51.62206000
8.61066589,-51.62206000
8.61322589,-51.62206000
8.61578589,-51.62206000
8.61834589,-51.62206000
8.62090589,-51.62206000
8.62346589,-51.62206000
8.62602589,-51.62206000
8.62858589,-51.62206000
8.63114589,-51.62206000
8.63370589,-51.62206000
8.63626589,-51.62206000
8.63882589,-51.62206000
8.64138589,-56.09302000
8.64394589,-51.62206000
8.64650589,-56.09302000
8.64906589,-56.09302000
8.65162589,-56.09302000
8.65418589,-56.09302000
8.65674589,-56.09302000
8.65930589,-60.56398000
8.66186589,-56.09302000
8.66442589,-56.09302000
8.66698589,-60.56398000
8.66954589,-60.56398000
8.67210589,-60.56398000
8.67466589,-60.56398000
8.67722589,-60.56398000
8.67978589,-60.56398000
8.68234589,-60.56398000
8.68490589,-60.56398000
8.68746589,-60.56398000
8.69002589,-60.56398000
8.69258589,-60.56398000
8.69514589,-60.56398000
8.69770589,-60.56398000
8.70026589,-60.56398000
8.70282589,-60.56398000
8.70538589,-60.56398000
8.70794589,-60.56398000
8.71050589,-60.56398000
8.71306589,-65.03493000
8.71562589,-65.03493000
8.71818589,-65.03493000
8.72074589,-65.03493000
8.72330589,-65.03493000
8.72586589,-65.03493000
8.72842589,-65.03493000
8.73098589,-65.03493000
8.73354589,-69.50591000
8.73610589,-65.03493000
8.73866589,-65.03493000
8.74122589,-65.03493000
8.74378589,-69.50591000
8.74634589,-69.50591000
8.74890589,-69.50591000
8.75146589,-69.50591000
8.75402589,-69.50591000
8.75658589,-69.50591000
8.75914589,-69.50591000
8.76170589,-69.50591000
8.76426589,-69.50591000
8.76682589,-69.50591000
8.76938589,-69.50591000
8.77194589,-69.50591000
8.77450589,-69.50591000
8.77706589,-69.50591000
8.77962589,-69.50591000
8.78218589,-69.50591000
8.78474589,-69.50591000
8.78730589,-73.99212000
8.78986589,-69.50591000
8.79242589,-69.50591000
8.79498589,-73.99212000
8.79754589,-69.50591000
8.80010589,-69.50591000
8.80266589,-73.99212000
8.80522589,-73.99212000
8.80778589,-69.50591000
8.81034589,-73.99212000
8.81290589,-73.99212000
8.81546589,-73.99212000
8.81802589,-73.99212000
8.82058589,-73.99212000
8.82314589,-78.46308000
8.82570589,-73.99212000
8.82826589,-73.99212000
8.83082589,-73.99212000
8.83338589,-73.99212000
8.83594589,-78.46308000
8.83850589,-78.46308000
8.84106589,-78.46308000
8.84362589,-78.46308000
8.84618589,-78.46308000
8.84874589,-78.46308000
8.85130589,-78.46308000
8.85386589,-78.46308000
8.85642589,-78.46308000
8.85898589,-78.46308000
8.86154589,-78.46308000
8.86410589,-78.46308000
8.86666589,-78.46308000
8.86922589,-78.46308000
8.87178589,-78.46308000
8.87434589,-78.46308000
8.87690589,-78.46308000
8.87946589,-78.46308000
8.88202589,-78.46308000
8.88458589,-78.46308000
8.88714589,-78.46308000
8.88970589,-78.46308000
8.89226589,-78.46308000
8.89482589,-78.46308000
8.89738589,-78.46308000
8.89994589,-82.93404000
8.90250589,-82.93404000
8.90506589,-78.46308000
8.90762589,-78.46308000
8.91018589,-78.46308000
8.91274589,-78.46308000
8.91530589,-82.93404000
8.91786589,-78.46308000
8.92042589,-82.93404000
8.92298589,-82.93404000
8.92554589,-82.93404000
8.92810589,-82.93404000
8.93066589,-82.93404000
8.93322589,-82.93404000
8.93578589,-82.93404000
8.93834589,-82.93404000
8.94090589,-78.46308000
8.94346589,-78.46308000
8.94602589,-82.93404000
8.94858589,-82.93404000
8.95114589,-82.93404000
8.95370589,-82.93404000
8.95626589,-82.93404000
8.95882589,-82.93404000
8.96138589,-82.93404000
8.96394589,-82.93404000
8.96650589,-82.93404000
8.96906589,-82.93404000
8.97162589,-82.93404000
8.97418589,-82.93404000
8.97674589,-82.93404000
8.97930589,-82.93404000
8.98186589,-82.93404000
8.98442589,-82.93404000
8.98698589,-87.40501000
8.98954589,-82.93404000
8.99210589,-82.93404000
8.99466589,-82.93404000
8.99722589,-82.93404000
8.99978589,-82.93404000
9.00234589,-82.93404000
9.00490589,-87.40501000
9.00746589,-82.93404000
9.01002589,-87.40501000
9.01258589,-87.40501000
9.01514589,-82.93404000
9.01770589,-82.93404000
9.02026589,-87.40501000
9.02282589,-82.93404000
9.02538589,-82.93404000
9.02794589,-82.93404000
9.03050589,-82.93404000
9.03306589,-82.93404000
9.03562589,-82.93404000
9.03818589,-87.40501000
9.04074589,-82.93404000
9.04330589,-87.40501000
9.04586589,-82.93404000
9.04842589,-82.93404000
9.05098589,-82.93404000
9.05354589,-82.93404000
9.05610589,-87.40501000
9.05866589,-82.93404000
9.06122589,-87.40501000
9.06378589,-82.93404000
9.06634589,-82.93404000
9.06890589,-87.40501000
9.07146589,-82.93404000
9.07402589,-82.93404000
9.07658589,-82.93404000
9.07914589,-82.93404000
9.08170589,-82.93404000
9.08426589,-82.93404000
9.08682589,-82.93404000
9.08938589,-87.40501000
9.09194589,-82.93404000
9.09450589,-82.93404000
9.09706589,-82.93404000
9.09962589,-87.40501000
9.10218589,-87.40501000
9.10474589,-82.93404000
9.10730589,-87.40501000
9.10986589,-82.93404000
9.11242589,-82.93404000
9.11498589,-82.93404000
9.11754589,-87.40501000
9.12010589,-82.93404000
9.12266589,-82.93404000
9.12522589,-82.93404000
9.12778589,-87.40501000
9.13034589,-82.93404000
9.13290589,-82.93404000
9.13546589,-87.40501000
9.13802589,-87.40501000
9.14058589,-87.40501000
9.14314589,-82.93404000
9.14570589,-87.40501000
9.14826589,-87.40501000
9.15082589,-87.40501000
9.15338589,-87.40501000
9.15594589,-82.93404000
9.15850589,-87.40501000
9.16106589,-82.93404000
9.16362589,-82.93404000
9.16618589,-87.40501000
9.16874589,-82.93404000
9.17130589,-87.40501000
9.17386589,-87.40501000
9.17642589,-87.40501000
9.17898589,-82.93404000
9.18154589,-82.93404000
9.18410589,-82.93404000
9.18666589,-87.40501000
9.18922589,-82.93404000
9.19178589,-87.40501000
9.19434589,-82.93404000
9.19690589,-87.40501000
9.19946589,-87.40501000
9.20202589,-87.40501000
9.20458589,-87.40501000
9.20714589,-82.93404000
9.20970589,-82.93404000
9.21226589,-82.93404000
9.21482589,-87.40501000
9.21738589,-87.40501000
9.21994589,-87.40501000
9.22250589,-82.93404000
9.22506589,-82.93404000
9.22762589,-82.93404000
9.23018589,-82.93404000
9.23274589,-87.40501000
9.23530589,-82.93404000
9.23786589,-82.93404000
9.24042589,-82.93404000
9.24298589,-87.40501000
9.24554589,-82.93404000
9.24810589,-82.93404000
9.25066589,-87.40501000
9.25322589,-82.93404000
9.25578589,-82.93404000
9.25834589,-87.40501000
9.26090589,-82.93404000
9.26346589,-87.40501000
9.26602589,-82.93404000
9.26858589,-87.40501000
9.27114589,-82.93404000
9.27370589,-87.40501000
9.27626589,-82.93404000
9.27882589,-82.93404000
9.28138589,-87.40501000
9.28394589,-82.93404000
9.28650589,-82.93404000
9.28906589,-87.40501000
9.29162589,-82.93404000
9.29418589,-82.93404000
9.29674589,-82.93404000
9.29930589,-82.93404000
9.30186589,-82.93404000
9.30442589,-82.93404000
9.30698589,-82.93404000
9.30954589,-82.93404000
9.31210589,-82.93404000
9.31466589,-82.93404000
9.31722589,-82.93404000
9.31978589,-87.40501000
9.32234589,-82.93404000
9.32490589,-87.40501000
9.32746589,-82.93404000
9.33002589,-82.93404000
9.33258589,-87.40501000
9.33514589,-82.93404000
9.33770589,-82.93404000
9.34026589,-82.93404000
9.34282589,-82.93404000
9.34538589,-82.93404000
9.34794589,-82.93404000
9.35050589,-82.93404000
9.35306589,-82.93404000
9.35562589,-82.93404000
9.35818589,-82.93404000
9.36074589,-82.93404000
9.36330589,-82.93404000
9.36586589,-82.93404000
9.36842589,-87.40501000
9.37098589,-82.93404000
9.37354589,-82.93404000
9.37610589,-82.93404000
9.37866589,-82.93404000
9.38122589,-82.93404000
9.38378589,-82.93404000
9.38634589,-82.93404000
9.38890589,-87.40501000
9.39146589,-82.93404000
9.39402589,-82.93404000
9.39658589,-82.93404000
9.39914589,-87.40501000
9.40170589,-82.93404000
9.40426589,-82.93404000
9.40682589,-82.93404000
9.40938589,-87.40501000
9.41194589,-82.93404000
9.41450589,-82.93404000
9.41706589,-82.93404000
9.41962589,-82.93404000
9.42218589,-82.93404000
9.42474589,-82.93404000
9.42730589,-82.93404000
9.42986589,-82.93404000
9.43242589,-82.93404000
9.43498589,-82.93404000
9.43754589,-82.93404000
9.44010589,-82.93404000
9.44266589,-82.93404000
9.44522589,-82.93404000
9.44778589,-82.93404000
9.45034589,-82.93404000
9.45290589,-82.93404000
9.45546589,-82.93404000
9.45802589,-82.93404000
9.46058589,-82.93404000
9.46314589,-82.93404000
9.46570589,-82.93404000
9.46826589,-82.93404000
9.47082589,-82.93404000
9.47338589,-82.93404000
9.47594589,-82.93404000
9.47850589,-82.93404000
9.48106589,-82.93404000
9.48362589,-82.93404000
9.48618589,-82.93404000
9.48874589,-82.93404000
9.49130589,-78.46308000
9.49386589,-82.93404000
9.49642589,-82.93404000
9.49898589,-82.93404000
9.50154589,-82.93404000
9.50410589,-82.93404000
9.50666589,-78.46308000
9.50922589,-82.93404000
9.51178589,-82.93404000
9.51434589,-82.93404000
9.51690589,-82.93404000
9.51946589,-82.93404000
9.52202589,-82.93404000
9.52458589,-82.93404000
9.52714589,-82.93404000
9.52970589,-82.93404000
9.53226589,-82.93404000
9.53482589,-82.93404000
9.53738589,-82.93404000
9.53994589,-82.93404000
9.54250589,-82.93404000
9.54506589,-82.93404000
9.54762589,-82.93404000
9.55018589,-82.93404000
9.55274589,-82.93404000
9.55530589,-82.93404000
9.55786589,-82.93404000
9.56042589,-82.93404000
9.56298589,-82.93404000
9.56554589,-82.93404000
9.56810589,-82.93404000
9.57066589,-82.93404000
9.57322589,-82.93404000
9.57578589,-82.93404000
9.57834589,-82.93404000
9.58090589,-82.93404000
9.58346589,-82.93404000
9.58602589,-82.93404000
9.58858589,-82.93404000
9.59114588,-82.93404000
9.59370588,-82.93404000
9.59626588,-82.93404000
9.59882588,-82.93404000
9.60138588,-82.93404000
9.60394588,-82.93404000
9.60650588,-82.93404000
9.60906588,-82.93404000
9.61162588,-82.93404000
9.61418588,-82.93404000
9.61674588,-82.93404000
9.61930588,-82.93404000
9.62186588,-82.93404000
9.62442588,-82.93404000
9.62698588,-82.93404000
9.62954588,-82.93404000
9.63210588,-82.93404000
9.63466588,-82.93404000
9.63722588,-82.93404000
9.63978588,-82.93404000
9.64234588,-82.93404000
9.64490588,-82.93404000
9.64746588,-82.93404000
9.65002588,-78.46308000
9.65258588,-78.46308000
9.65514588,-82.93404000
9.65770588,-78.46308000
9.66026588,-82.93404000
9.66282588,-82.93404000
9.66538588,-82.93404000
9.66794588,-82.93404000
9.67050588,-82.93404000
9.67306588,-82.93404000
9.67562588,-78.46308000
9.67818588,-78.46308000
9.68074588,-78.46308000
9.68330588,-82.93404000
9.68586588,-82.93404000
9.68842588,-78.46308000
9.69098588,-82.93404000
9.69354588,-78.46308000
9.69610588,-78.46308000
9.69866588,-82.93404000
9.70122588,-78.46308000
9.70378588,-78.46308000
9.70634588,-78.46308000
9.70890588,-78.46308000
9.71146588,-82.93404000
9.71402588,-78.46308000
9.71658588,-78.46308000
9.71914588,-78.46308000
9.72170588,-78.46308000
9.72426588,-78.46308000
9.72682588,-82.93404000
9.72938588,-78.46308000
9.73194588,-82.93404000
9.73450588,-78.46308000
9.73706588,-78.46308000
9.73962588,-78.46308000
9.74218588,-78.46308000
9.74474588,-78.46308000
9.74730588,-78.46308000
9.74986588,-78.46308000
9.75242588,-78.46308000
9.75498588,-82.93404000
9.75754588,-78.46308000
9.76010588,-78.46308000
9.76266588,-78.46308000
9.76522588,-78.46308000
9.76778588,-78.46308000
9.77034588,-78.46308000
9.77290588,-78.46308000
9.77546588,-78.46308000
9.77802588,-78.46308000
9.78058588,-78.46308000
9.78314588,-78.46308000
9.78570588,-78.46308000
9.78826588,-78.46308000
9.79082588,-78.46308000
9.79338588,-78.46308000
9.79594588,-78.46308000
9.79850588,-78.46308000
9.80106588,-78.46308000
9.80362588,-78.46308000
9.80618588,-78.46308000
9.80874588,-78.46308000
9.81130588,-78.46308000
9.81386588,-78.46308000
9.81642588,-78.46308000
9.81898588,-78.46308000
9.82154588,-78.46308000
9.82410588,-78.46308000
9.82666588,-78.46308000
9.82922588,-78.46308000
9.83178588,-78.46308000
9.83434588,-78.46308000
9.83690588,-78.46308000
9.83946588,-78.46308000
9.84202588,-78.46308000
9.84458588,-78.46308000
9.84714588,-78.46308000
9.84970588,-78.46308000
9.85226588,-78.46308000
9.85482588,-78.46308000
9.85738588,-78.46308000
9.85994588,-78.46308000
9.86250588,-78.46308000
9.86506588,-78.46308000
9.86762588,-78.46308000
9.87018588,-78.46308000
9.87274588,-78.46308000
9.87530588,-78.46308000
9.87786588,-78.46308000
9.88042588,-78.46308000
9.88298588,-78.46308000
9.88554588,-78.46308000
9.88810588,-78.46308000
9.89066588,-78.46308000
9.89322588,-78.46308000
9.89578588,-78.46308000
9.89834588,-78.46308000
9.90090588,-78.46308000
9.90346588,-78.46308000
9.90602588,-78.46308000
9.90858588,-78.46308000
9.91114588,-78.46308000
9.91370588,-78.46308000
9.91626588,-73.99212000
9.91882588,-78.46308000
9.92138588,-78.46308000
9.92394588,-78.46308000
9.92650588,-78.46308000
9.92906588,-78.46308000
9.93162588,-78.46308000
9.93418588,-78.46308000
9.93674588,-73.99212000
9.93930588,-78.46308000
9.94186588,-78.46308000
9.94442588,-78.46308000
9.94698588,-78.46308000
9.94954588,-78.46308000
9.95210588,-78.46308000
9.95466588,-78.46308000
9.95722588,-78.46308000
9.95978588,-78.46308000
9.96234588,-78.46308000
9.96490588,-78.46308000
9.96746588,-78.46308000
9.97002588,-78.46308000
9.97258588,-78.46308000
9.97514588,-78.46308000
9.97770588,-78.46308000
9.98026588,-78.46308000
9.98282588,-78.46308000
9.98538588,-78.46308000
9.98794588,-78.46308000
9.99050588,-78.46308000
9.99306588,-78.46308000
9.99562588,-73.99212000
9.99818588,-78.46308000
10.00074588,-78.46308000
10.00330588,-73.99212000
10.00586588,-73.99212000
10.00842588,-78.46308000
10.01098588,-78.46308000
10.01354588,-78.46308000
10.01610588,-78.46308000
10.01866588,-73.99212000
10.02122588,-73.99212000
10.02378588,-78.46308000
10.02634588,-78.46308000
10.02890588,-78.46308000
10.03146588,-78.46308000
10.03402588,-78.46308000
10.03658588,-78.46308000
10.03914588,-73.99212000
10.04170588,-78.46308000
10.04426588,-73.99212000
10.04682588,-78.46308000
10.04938588,-78.46308000
10.05194588,-73.99212000
10.05450588,-78.46308000
10.05706588,-78.46308000
10.05962588,-73.99212000
10.06218588,-73.99212000
10.06474588,-78.46308000
10.06730588,-73.99212000
10.06986588,-73.99212000
10.07242588,-73.99212000
10.07498588,-73.99212000
10.07754588,-78.46308000
10.08010588,-73.99212000
10.08266588,-73.99212000
10.08522588,-73.99212000
10.08778588,-73.99212000
10.09034588,-73.99212000
10.09290588,-73.99212000
10.09546588,-73.99212000
10.09802588,-73.99212000
10.10058588,-73.99212000
10.10314588,-78.46308000
10.10570588,-73.99212000
10.10826588,-73.99212000
10.11082588,-73.99212000
10.11338588,-73.99212000
10.11594588,-73.99212000
10.11850588,-73.99212000
10.12106588,-78.46308000
10.12362588,-78.46308000
10.12618588,-73.99212000
10.12874588,-73.99212000
10.13130588,-78.46308000
10.13386588,-73.99212000
10.13642588,-78.46308000
10.13898588,-73.99212000
10.14154588,-73.99212000
10.14410588,-73.99212000
10.14666588,-73.99212000
10.14922588,-73.99212000
10.15178588,-73.99212000
10.15434588,-73.99212000
10.15690588,-73.99212000
10.15946588,-73.99212000
10.16202588,-73.99212000
10.16458588,-73.99212000
10.16714588,-73.99212000
10.16970588,-73.99212000
10.17226588,-78.46308000
10.17482588,-73.99212000
10.17738588,-78.46308000
10.17994588,-78.46308000
10.18250588,-73.99212000
10.18506588,-73.99212000
10.18762588,-73.99212000
10.19018588,-73.99212000
10.19274588,-73.99212000
10.19530588,-73.99212000
10.19786588,-73.99212000
10.20042588,-73.99212000
10.20298588,-78.46308000
10.20554588,-73.99212000
10.20810588,-73.99212000
10.21066588,-78.46308000
10.21322588,-73.99212000
10.21578588,-73.99212000
10.21834588,-73.99212000
10.22090588,-73.99212000
10.22346588,-78.46308000
10.22602588,-73.99212000
10.22858588,-73.99212000
10.23114588,-73.99212000
10.23370588,-73.99212000
10.23626588,-73.99212000
10.23882588,-73.99212000
10.24138588,-73.99212000
10.24394588,-73.99212000
10.24650588,-73.99212000
10.24906588,-73.99212000
10.25162588,-73.99212000
10.25418588,-73.99212000
10.25674588,-78.46308000
10.25930588,-73.99212000
10.26186588,-73.99212000
10.26442588,-73.99212000
10.26698588,-73.99212000
10.26954588,-78.46308000
10.27210588,-73.99212000
10.27466588,-73.99212000
10.27722588,-73.99212000
10.27978588,-73.99212000
10.28234588,-73.99212000
10.28490588,-73.99212000
10.28746588,-73.99212000
10.29002588,-73.99212000
10.29258588,-69.50591000
10.29514588,-73.99212000
10.29770588,-73.99212000
10.30026588,-73.99212000
10.30282588,-69.50591000
10.30538588,-73.99212000
10.30794588,-73.99212000
10.31050588,-73.99212000
10.31306588,-78.46308000
10.31562588,-73.99212000
10.31818588,-73.99212000
10.32074588,-73.99212000
10.32330588,-73.99212000
10.32586588,-73.99212000
10.32842588,-73.99212000
10.33098588,-73.99212000
10.33354588,-69.50591000
10.33610588,-73.99212000
10.33866588,-73.99212000
10.34122588,-73.99212000
10.34378588,-78.46308000
10.34634588,-73.99212000
10.34890588,-73.99212000
10.35146588,-73.99212000
10.35402588,-73.99212000
10.35658588,-73.99212000
10.35914588,-73.99212000
10.36170588,-73.99212000
10.36426588,-73.99212000
10.36682588,-73.99212000
10.36938588,-73.99212000
10.37194588,-73.99212000
10.37450588,-73.99212000
10.37706588,-73.99212000
10.37962588,-73.99212000
10.38218588,-73.99212000
10.38474588,-73.99212000
10.38730588,-73.99212000
10.38986588,-73.99212000
10.39242588,-73.99212000
10.39498588,-73.99212000
10.39754588,-73.99212000
10.40010588,-73.99212000
10.40266588,-73.99212000
10.40522588,-73.99212000
10.40778588,-73.99212000
10.41034588,-73.99212000
10.41290588,-78.46308000
10.41546588,-78.46308000
10.41802588,-78.46308000
10.42058588,-73.99212000
10.42314588,-73.99212000
10.42570588,-78.46308000
10.42826588,-73.99212000
10.43082588,-73.99212000
10.43338588,-78.46308000
10.43594588,-78.46308000
10.43850588,-78.46308000
10.44106588,-73.99212000
10.44362588,-78.46308000
10.44618588,-78.46308000
10.44874588,-78.46308000
10.45130588,-78.46308000
10.45386588,-78.46308000
10.45642588,-78.46308000
10.45898588,-78.46308000
10.46154588,-78.46308000
10.46410588,-78.46308000
10.46666588,-78.46308000
10.46922588,-78.46308000
10.47178588,-78.46308000
10.47434588,-78.46308000
10.47690588,-78.46308000
10.47946588,-78.46308000
10.48202588,-78.46308000
10.48458588,-78.46308000
10.48714588,-78.46308000
10.48970588,-78.46308000
10.49226588,-78.46308000
10.49482588,-78.46308000
10.49738588,-78.46308000
10.49994588,-78.46308000
10.50250588,-78.46308000
10.50506588,-78.46308000
10.50762588,-78.46308000
10.51018588,-78.46308000
10.51274588,-78.46308000
10.51530588,-78.46308000
10.51786588,-78.46308000
10.52042588,-78.46308000
10.52298588,-78.46308000
10.52554588,-78.46308000
10.52810588,-78.46308000
10.53066588,-78.46308000
10.53322588,-78.46308000
10.53578588,-78.46308000
10.53834588,-78.46308000
10.54090588,-78.46308000
10.54346588,-78.46308000
10.54602588,-78.46308000
10.54858588,-78.46308000
10.55114588,-78.46308000
10.55370588,-78.46308000
10.55626588,-78.46308000
10.55882588,-78.46308000
10.56138588,-78.46308000
10.56394588,-78.46308000
10.56650588,-78.46308000
10.56906588,-78.46308000
10.57162588,-78.46308000
10.57418588,-78.46308000
10.57674588,-78.46308000
10.57930588,-78.46308000
10.58186588,-78.46308000
10.58442588,-78.46308000
10.58698588,-78.46308000
10.58954588,-78.46308000
10.59210588,-78.46308000
10.59466588,-73.99212000
10.59722588,-78.46308000
10.59978588,-78.46308000
10.60234588,-78.46308000
10.60490588,-78.46308000
10.60746588,-78.46308000
10.61002588,-78.46308000
10.61258588,-78.46308000
10.61514588,-78.46308000
10.61770588,-73.99212000
10.62026588,-73.99212000
10.62282588,-78.46308000
10.62538588,-78.46308000
10.62794588,-73.99212000
10.63050588,-73.99212000
10.63306588,-78.46308000
10.63562588,-73.99212000
10.63818588,-78.46308000
10.64074588,-78.46308000
10.64330588,-78.46308000
10.64586588,-73.99212000
10.64842588,-78.46308000
10.65098588,-73.99212000
10.65354588,-73.99212000
10.65610588,-73.99212000
10.65866588,-78.46308000
10.66122588,-73.99212000
10.66378588,-73.99212000
10.66634588,-73.99212000
10.66890588,-73.99212000
10.67146588,-73.99212000
10.67402588,-73.99212000
10.67658588,-73.99212000
10.67914588,-73.99212000
10.68170588,-73.99212000
10.68426588,-73.99212000
10.68682588,-73.99212000
10.68938588,-73.99212000
10.69194588,-73.99212000
10.69450588,-69.50591000
10.69706588,-69.50591000
10.69962588,-69.50591000
10.70218588,-69.50591000
10.70474588,-73.99212000
10.70730588,-69.50591000
10.70986588,-69.50591000
10.71242588,-69.50591000
10.71498588,-73.99212000
10.71754588,-69.50591000
10.72010588,-73.99212000
10.72266588,-69.50591000
10.72522588,-69.50591000
10.72778588,-69.50591000
10.73034588,-69.50591000
10.73290588,-69.50591000
10.73546588,-69.50591000
10.73802588,-69.50591000
10.74058588,-69.50591000
10.74314588,-69.50591000
10.74570588,-69.50591000
10.74826588,-69.50591000
10.75082588,-69.50591000
10.75338588,-69.50591000
10.75594588,-69.50591000
10.75850588,-69.50591000
10.76106588,-69.50591000
10.76362588,-69.50591000
10.76618588,-69.50591000
10.76874588,-69.50591000
10.77130588,-69.50591000
10.77386588,-73.99212000
10.77642588,-69.50591000
10.77898588,-69.50591000
10.78154588,-69.50591000
10.78410588,-69.50591000
10.78666588,-69.50591000
10.78922588,-69.50591000
10.79178588,-69.50591000
10.79434588,-69.50591000
10.79690588,-69.50591000
10.79946588,-69.50591000
10.80202588,-69.50591000
10.80458588,-69.50591000
10.80714588,-69.50591000
10.80970588,-69.50591000
10.81226588,-69.50591000
10.81482588,-69.50591000
10.81738588,-69.50591000
10.81994588,-69.50591000
10.82250588,-69.50591000
10.82506588,-69.50591000
10.82762588,-69.50591000
10.83018588,-69.50591000
10.83274588,-69.50591000
10.83530588,-69.50591000
10.83786588,-69.50591000
10.84042588,-69.50591000
10.84298588,-69.50591000
10.84554588,-69.50591000
10.84810588,-69.50591000
10.85066588,-69.50591000
10.85322588,-73.99212000
10.85578588,-69.50591000
10.85834588,-69.50591000
10.86090588,-69.50591000
10.86346588,-69.50591000
10.86602588,-73.99212000
10.86858588,-73.99212000
10.87114588,-73.99212000
10.87370588,-73.99212000
10.87626588,-69.50591000
10.87882588,-73.99212000
10.88138588,-69.50591000
10.88394588,-73.99212000
10.88650588,-73.99212000
10.88906588,-73.99212000
10.89162588,-73.99212000
10.89418588,-73.99212000
10.89674588,-73.99212000
10.89930588,-73.99212000
10.90186588,-73.99212000
10.90442588,-73.99212000
10.90698588,-73.99212000
10.90954588,-78.46308000
10.91210588,-73.99212000
10.91466588,-73.99212000
10.91722588,-73.99212000
10.91978588,-73.99212000
10.92234588,-73.99212000
10.92490588,-73.99212000
10.92746588,-73.99212000
10.93002588,-73.99212000
10.93258588,-73.99212000
10.93514588,-78.46308000
10.93770588,-73.99212000
10.94026588,-73.99212000
10.94282588,-78.46308000
10.94538588,-73.99212000
10.94794588,-73.99212000
10.95050588,-73.99212000
10.95306588,-73.99212000
10.95562588,-73.99212000
10.95818588,-78.46308000
10.96074588,-73.99212000
10.96330588,-78.46308000
10.96586588,-73.99212000
10.96842588,-78.46308000
10.97098588,-73.99212000
10.97354588,-73.99212000
10.97610588,-73.99212000
10.97866588,-78.46308000
10.98122588,-78.46308000
10.98378588,-78.46308000
10.98634588,-73.99212000
10.98890588,-78.46308000
10.99146588,-78.46308000
10.99402588,-78.46308000
10.99658588,-78.46308000
10.99914588,-78.46308000
11.00170588,-78.46308000
11.00426588,-78.46308000
11.00682588,-78.46308000
11.00938588,-78.46308000
11.01194588,-78.46308000
11.01450588,-73.99212000
11.01706588,-78.46308000
11.01962588,-78.46308000
11.02218588,-78.46308000
11.02474588,-78.46308000
11.02730588,-78.46308000
11.02986588,-78.46308000
11.03242588,-73.99212000
11.03498588,-78.46308000
11.03754588,-78.46308000
11.04010588,-78.46308000
11.04266588,-78.46308000
11.04522588,-78.46308000
11.04778588,-73.99212000
11.05034588,-78.46308000
11.05290588,-78.46308000
11.05546588,-78.46308000
11.05802588,-78.46308000
11.06058588,-78.46308000
11.06314588,-78.46308000
11.06570588,-78.46308000
11.06826588,-78.46308000
11.07082588,-73.99212000
11.07338588,-78.46308000
11.07594588,-78.46308000
11.07850588,-78.46308000
11.08106588,-78.46308000
11.08362588,-73.99212000
11.08618588,-78.46308000
11.08874588,-78.46308000
11.09130588,-78.46308000
11.09386588,-78.46308000
11.09642588,-73.99212000
11.09898588,-73.99212000
11.10154588,-78.46308000
11.10410588,-73.99212000
11.10666588,-73.99212000
11.10922588,-73.99212000
11.11178588,-73.99212000
11.11434588,-73.99212000
11.11690588,-73.99212000
11.11946588,-73.99212000
11.12202588,-73.99212000
11.12458588,-73.99212000
11.12714588,-73.99212000
11.12970588,-78.46308000
11.13226588,-78.46308000
11.13482588,-78.46308000
11.13738588,-73.99212000
11.13994588,-73.99212000
11.14250588,-73.99212000
11.14506588,-73.99212000
11.14762588,-78.46308000
11.15018588,-73.99212000
11.15274588,-73.99212000
11.15530588,-73.99212000
11.15786588,-73.99212000
11.16042588,-73.99212000
11.16298588,-73.99212000
11.16554588,-73.99212000
11.16810588,-73.99212000
11.17066588,-73.99212000
11.17322588,-73.99212000
11.17578588,-73.99212000
11.17834588,-73.99212000
11.18090588,-73.99212000
11.18346588,-73.99212000
11.18602588,-73.99212000
11.18858588,-73.99212000
11.19114588,-73.99212000
11.19370588,-73.99212000
11.19626588,-73.99212000
11.19882588,-73.99212000
11.20138588,-73.99212000
11.20394588,-73.99212000
11.20650588,-73.99212000
11.20906588,-73.99212000
11.21162588,-73.99212000
11.21418588,-73.99212000
11.21674588,-73.99212000
11.21930588,-73.99212000
11.22186588,-73.99212000
11.22442588,-73.99212000
11.22698588,-73.99212000
11.22954588,-73.99212000
11.23210588,-73.99212000
11.23466588,-73.99212000
11.23722587,-73.99212000
11.23978587,-73.99212000
11.24234587,-73.99212000
11.24490587,-73.99212000
11.24746587,-73.99212000
11.25002587,-73.99212000
11.25258587,-73.99212000
11.25514587,-73.99212000
11.25770587,-73.99212000
11.26026587,-69.50591000
11.26282587,-69.50591000
11.26538587,-73.99212000
11.26794587,-73.99212000
11.27050587,-73.99212000
11.27306587,-69.50591000
11.27562587,-73.99212000
11.27818587,-69.50591000
11.28074587,-69.50591000
11.28330587,-69.50591000
11.28586587,-69.50591000
11.28842587,-73.99212000
11.29098587,-73.99212000
11.29354587,-69.50591000
11.29610587,-73.99212000
11.29866587,-69.50591000
11.30122587,-73.99212000
11.30378587,-73.99212000
11.30634587,-73.99212000
11.30890587,-73.99212000
11.31146587,-69.50591000
11.31402587,-73.99212000
11.31658587,-69.50591000
11.31914587,-73.99212000
11.32170587,-73.99212000
11.32426587,-73.99212000
11.32682587,-73.99212000
11.32938587,-73.99212000
11.33194587,-73.99212000
11.33450587,-73.99212000
11.33706587,-73.99212000
11.33962587,-73.99212000
11.34218587,-73.99212000
11.34474587,-73.99212000
11.34730587,-73.99212000
11.34986587,-69.50591000
11.35242587,-73.99212000
11.35498587,-73.99212000
11.35754587,-69.50591000
11.36010587,-69.50591000
11.36266587,-73.99212000
11.36522587,-73.99212000
11.36778587,-73.99212000
11.37034587,-73.99212000
11.37290587,-73.99212000
11.37546587,-73.99212000
11.37802587,-78.46308000
11.38058587,-73.99212000
11.38314587,-73.99212000
11.38570587,-73.99212000
11.38826587,-69.50591000
11.39082587,-73.99212000
11.39338587,-69.50591000
11.39594587,-73.99212000
11.39850587,-73.99212000
11.40106587,-78.46308000
11.40362587,-73.99212000
11.40618587,-69.50591000
11.40874587,-69.50591000
11.41130587,-73.99212000
11.41386587,-73.99212000
11.41642587,-73.99212000
11.41898587,-69.50591000
11.42154587,-78.46308000
11.42410587,-73.99212000
11.42666587,-69.50591000
11.42922587,-73.99212000
11.43178587,-69.50591000
11.43434587,-73.99212000
11.43690587,-73.99212000
11.43946587,-73.99212000
11.44202587,-73.99212000
11.44458587,-73.99212000
11.44714587,-69.50591000
11.44970587,-73.99212000
11.45226587,-73.99212000
11.45482587,-73.99212000
11.45738587,-78.46308000
11.45994587,-73.99212000
11.46250587,-73.99212000
11.46506587,-73.99212000
11.46762587,-73.99212000
11.47018587,-73.99212000
11.47274587,-73.99212000
11.47530587,-73.99212000
11.47786587,-73.99212000
11.48042587,-73.99212000
11.48298587,-69.50591000
11.48554587,-73.99212000
11.48810587,-73.99212000
11.49066587,-73.99212000
11.49322587,-73.99212000
11.49578587,-73.99212000
11.49834587,-73.99212000
11.50090587,-73.99212000
11.50346587,-73.99212000
11.50602587,-73.99212000
11.50858587,-73.99212000
11.51114587,-73.99212000
11.51370587,-73.99212000
11.51626587,-73.99212000
11.51882587,-69.50591000
11.52138587,-73.99212000
11.52394587,-73.99212000
11.52650587,-73.99212000
11.52906587,-73.99212000
11.53162587,-73.99212000
11.53418587,-73.99212000
11.53674587,-73.99212000
11.53930587,-73.99212000
11.54186587,-73.99212000
11.54442587,-69.50591000
11.54698587,-73.99212000
11.54954587,-73.99212000
11.55210587,-73.99212000
11.55466587,-73.99212000
11.55722587,-73.99212000
11.55978587,-73.99212000
11.56234587,-69.50591000
11.56490587,-69.50591000
11.56746587,-73.99212000
11.57002587,-73.99212000
11.57258587,-73.99212000
11.57514587,-69.50591000
11.57770587,-73.99212000
11.58026587,-69.50591000
11.58282587,-69.50591000
11.58538587,-73.99212000
11.58794587,-73.99212000
11.59050587,-73.99212000
11.59306587,-73.99212000
11.59562587,-73.99212000
11.59818587,-73.99212000
11.60074587,-73.99212000
11.60330587,-73.99212000
11.60586587,-73.99212000
11.60842587,-73.99212000
11.61098587,-73.99212000
11.61354587,-73.99212000
11.61610587,-73.99212000
11.61866587,-73.99212000
11.62122587,-73.99212000
11.62378587,-69.50591000
11.62634587,-69.50591000
11.62890587,-73.99212000
11.63146587,-69.50591000
11.63402587,-73.99212000
11.63658587,-69.50591000
11.63914587,-69.50591000
11.64170587,-69.50591000
11.64426587,-73.99212000
11.64682587,-69.50591000
11.64938587,-69.50591000
11.65194587,-69.50591000
11.65450587,-69.50591000
11.65706587,-73.99212000
11.65962587,-73.99212000
11.66218587,-73.99212000
11.66474587,-73.99212000
11.66730587,-73.99212000
11.66986587,-73.99212000
11.67242587,-73.99212000
11.67498587,-73.99212000
11.67754587,-73.99212000
11.68010587,-73.99212000
11.68266587,-73.99212000
11.68522587,-73.99212000
11.68778587,-73.99212000
11.69034587,-78.46308000
11.69290587,-73.99212000
11.69546587,-69.50591000
11.69802587,-73.99212000
11.70058587,-73.99212000
11.70314587,-73.99212000
11.70570587,-73.99212000
11.70826587,-73.99212000
11.71082587,-69.50591000
11.71338587,-78.46308000
11.71594587,-73.99212000
11.71850587,-73.99212000
11.72106587,-73.99212000
11.72362587,-73.99212000
11.72618587,-73.99212000
11.72874587,-73.99212000
11.73130587,-73.99212000
11.73386587,-73.99212000
11.73642587,-73.99212000
11.73898587,-73.99212000
11.74154587,-78.46308000
11.74410587,-78.46308000
11.74666587,-78.46308000
11.74922587,-78.46308000
11.75178587,-78.46308000
11.75434587,-73.99212000
11.75690587,-78.46308000
11.75946587,-78.46308000
11.76202587,-73.99212000
11.76458587,-78.46308000
11.76714587,-73.99212000
11.76970587,-73.99212000
11.77226587,-73.99212000
11.77482587,-78.46308000
11.77738587,-78.46308000
11.77994587,-78.46308000
11.78250587,-73.99212000
11.78506587,-78.46308000
11.78762587,-73.99212000
11.79018587,-78.46308000
11.79274587,-73.99212000
11.79530587,-73.99212000
11.79786587,-73.99212000
11.80042587,-78.46308000
11.80298587,-73.99212000
11.80554587,-78.46308000
11.80810587,-73.99212000
11.81066587,-78.46308000
11.81322587,-78.46308000
11.81578587,-78.46308000
11.81834587,-78.46308000
11.82090587,-78.46308000
11.82346587,-78.46308000
11.82602587,-78.46308000
11.82858587,-78.46308000
11.83114587,-78.46308000
11.83370587,-78.46308000
11.83626587,-78.46308000
11.83882587,-78.46308000
11.84138587,-78.46308000
11.84394587,-78.46308000
11.84650587,-78.46308000
11.84906587,-73.99212000
11.85162587,-78.46308000
11.85418587,-73.99212000
11.85674587,-78.46308000
11.85930587,-78.46308000
11.86186587,-78.46308000
11.86442587,-73.99212000
11.86698587,-78.46308000
11.86954587,-73.99212000
11.87210587,-78.46308000
11.87466587,-78.46308000
11.87722587,-78.46308000
11.87978587,-78.46308000
11.88234587,-78.46308000
11.88490587,-78.46308000
11.88746587,-78.46308000
11.89002587,-78.46308000
11.89258587,-78.46308000
11.89514587,-73.99212000
11.89770587,-73.99212000
11.90026587,-78.46308000
11.90282587,-73.99212000
11.90538587,-78.46308000
11.90794587,-78.46308000
11.91050587,-78.46308000
11.91306587,-78.46308000
11.91562587,-73.99212000
11.91818587,-78.46308000
11.92074587,-78.46308000
11.92330587,-78.46308000
11.92586587,-78.46308000
11.92842587,-78.46308000
11.93098587,-78.46308000
11.93354587,-78.46308000
11.93610587,-73.99212000
11.93866587,-78.46308000
11.94122587,-78.46308000
11.94378587,-73.99212000
11.94634587,-73.99212000
11.94890587,-78.46308000
11.95146587,-78.46308000
11.95402587,-78.46308000
11.95658587,-73.99212000
11.95914587,-78.46308000
11.96170587,-78.46308000
11.96426587,-78.46308000
11.96682587,-78.46308000
11.96938587,-78.46308000
11.97194587,-73.99212000
11.97450587,-73.99212000
11.97706587,-78.46308000
11.97962587,-78.46308000
11.98218587,-73.99212000
11.98474587,-73.99212000
11.98730587,-73.99212000
11.98986587,-78.46308000
11.99242587,-78.46308000
11.99498587,-73.99212000
11.99754587,-78.46308000
12.00010587,-73.99212000
12.00266587,-73.99212000
12.00522587,-73.99212000
12.00778587,-78.46308000
12.01034587,-78.46308000
12.01290587,-78.46308000
12.01546587,-78.46308000
12.01802587,-73.99212000
12.02058587,-73.99212000
12.02314587,-78.46308000
12.02570587,-73.99212000
12.02826587,-73.99212000
12.03082587,-78.46308000
12.03338587,-73.99212000
12.03594587,-73.99212000
12.03850587,-78.46308000
12.04106587,-78.46308000
12.04362587,-73.99212000
12.04618587,-73.99212000
12.04874587,-73.99212000
12.05130587,-73.99212000
12.05386587,-78.46308000
12.05642587,-78.46308000
12.05898587,-73.99212000
12.06154587,-78.46308000
12.06410587,-73.99212000
12.06666587,-78.46308000
12.06922587,-73.99212000
12.07178587,-73.99212000
12.07434587,-78.46308000
12.07690587,-73.99212000
12.07946587,-73.99212000
12.08202587,-73.99212000
12.08458587,-78.46308000
12.08714587,-78.46308000
12.08970587,-78.46308000
12.09226587,-78.46308000
12.09482587,-73.99212000
12.09738587,-78.46308000
12.09994587,-73.99212000
12.10250587,-73.99212000
12.10506587,-78.46308000
12.10762587,-73.99212000
12.11018587,-78.46308000
12.11274587,-78.46308000
12.11530587,-73.99212000
12.11786587,-78.46308000
12.12042587,-73.99212000
12.12298587,-78.46308000
12.12554587,-78.46308000
12.12810587,-78.46308000
12.13066587,-73.99212000
12.13322587,-73.99212000
12.13578587,-78.46308000
12.13834587,-73.99212000
12.14090587,-73.99212000
12.14346587,-78.46308000
12.14602587,-73.99212000
12.14858587,-73.99212000
12.15114587,-73.99212000
12.15370587,-78.46308000
12.15626587,-78.46308000
12.15882587,-78.46308000
12.16138587,-78.46308000
12.16394587,-78.46308000
12.16650587,-78.46308000
12.16906587,-73.99212000
12.17162587,-78.46308000
12.17418587,-78.46308000
12.17674587,-78.46308000
12.17930587,-73.99212000
12.18186587,-78.46308000
12.18442587,-78.46308000
12.18698587,-73.99212000
12.18954587,-73.99212000
12.19210587,-73.99212000
12.19466587,-78.46308000
12.19722587,-78.46308000
12.19978587,-73.99212000
12.20234587,-78.46308000
12.20490587,-78.46308000
12.20746587,-73.99212000
12.21002587,-78.46308000
12.21258587,-78.46308000
12.21514587,-73.99212000
12.21770587,-78.46308000
12.22026587,-78.46308000
12.22282587,-78.46308000
12.22538587,-78.46308000
12.22794587,-78.46308000
12.23050587,-73.99212000
12.23306587,-78.46308000
12.23562587,-78.46308000
12.23818587,-78.46308000
12.24074587,-78.46308000
12.24330587,-78.46308000
12.24586587,-73.99212000
12.24842587,-78.46308000
12.25098587,-78.46308000
12.25354587,-73.99212000
12.25610587,-73.99212000
12.25866587,-78.46308000
12.26122587,-78.46308000
12.26378587,-78.46308000
12.26634587,-78.46308000
12.26890587,-78.46308000
12.27146587,-78.46308000
12.27402587,-78.46308000
12.27658587,-78.46308000
12.27914587,-73.99212000
12.28170587,-73.99212000
12.28426587,-78.46308000
12.28682587,-78.46308000
12.28938587,-78.46308000
12.29194587,-78.46308000
12.29450587,-78.46308000
12.29706587,-78.46308000
12.29962587,-78.46308000
12.30218587,-78.46308000
12.30474587,-73.99212000
12.30730587,-78.46308000
12.30986587,-78.46308000
12.31242587,-73.99212000
12.31498587,-73.99212000
12.31754587,-73.99212000
12.32010587,-78.46308000
12.32266587,-69.50591000
12.32522587,-73.99212000
12.32778587,-73.99212000
12.33034587,-73.99212000
12.33290587,-73.99212000
12.33546587,-73.99212000
12.33802587,-69.50591000
12.34058587,-73.99212000
12.34314587,-73.99212000
12.34570587,-73.99212000
12.34826587,-73.99212000
12.35082587,-73.99212000
12.35338587,-78.46308000
12.35594587,-73.99212000
12.35850587,-73.99212000
12.36106587,-73.99212000
12.36362587,-73.99212000
12.36618587,-73.99212000
12.36874587,-73.99212000
12.37130587,-73.99212000
12.37386587,-69.50591000
12.37642587,-73.99212000
12.37898587,-69.50591000
12.38154587,-73.99212000
12.38410587,-73.99212000
12.38666587,-73.99212000
12.38922587,-73.99212000
12.39178587,-73.99212000
12.39434587,-78.46308000
12.39690587,-73.99212000
12.39946587,-73.99212000
12.40202587,-69.50591000
12.40458587,-73.99212000
12.40714587,-69.50591000
12.40970587,-69.50591000
12.41226587,-73.99212000
12.41482587,-73.99212000
12.41738587,-69.50591000
12.41994587,-73.99212000
12.42250587,-73.99212000
12.42506587,-73.99212000
12.42762587,-73.99212000
12.43018587,-73.99212000
12.43274587,-73.99212000
12.43530587,-69.50591000
12.43786587,-69.50591000
12.44042587,-73.99212000
12.44298587,-73.99212000
12.44554587,-69.50591000
12.44810587,-73.99212000
12.45066587,-73.99212000
12.45322587,-73.99212000
12.45578587,-69.50591000
12.45834587,-73.99212000
12.46090587,-73.99212000
12.46346587,-73.99212000
12.46602587,-73.99212000
12.46858587,-73.99212000
12.47114587,-73.99212000
12.47370587,-73.99212000
12.47626587,-73.99212000
12.47882587,-73.99212000
12.48138587,-73.99212000
12.48394587,-73.99212000
12.48650587,-73.99212000
12.48906587,-69.50591000
12.49162587,-73.99212000
12.49418587,-73.99212000
12.49674587,-73.99212000
12.49930587,-73.99212000
12.50186587,-69.50591000
12.50442587,-73.99212000
12.50698587,-73.99212000
12.50954587,-73.99212000
12.51210587,-73.99212000
12.51466587,-73.99212000
12.51722587,-73.99212000
12.51978587,-78.46308000
12.52234587,-73.99212000
12.52490587,-73.99212000
12.52746587,-78.46308000
12.53002587,-78.46308000
12.53258587,-73.99212000
12.53514587,-73.99212000
12.53770587,-78.46308000
12.54026587,-73.99212000
12.54282587,-73.99212000
12.54538587,-73.99212000
12.54794587,-73.99212000
12.55050587,-73.99212000
12.55306587,-73.99212000
12.55562587,-73.99212000
12.55818587,-73.99212000
12.56074587,-73.99212000
12.56330587,-73.99212000
12.56586587,-78.46308000
12.56842587,-73.99212000
12.57098587,-73.99212000
12.57354587,-78.46308000
12.57610587,-73.99212000
12.57866587,-73.99212000
12.58122587,-73.99212000
12.58378587,-73.99212000
12.58634587,-73.99212000
12.58890587,-73.99212000
12.59146587,-73.99212000
12.59402587,-78.46308000
12.59658587,-73.99212000
12.59914587,-78.46308000
12.60170587,-73.99212000
12.60426587,-78.46308000
12.60682587,-73.99212000
12.60938587,-73.99212000
12.61194587,-73.99212000
12.61450587,-78.46308000
12.61706587,-73.99212000
12.61962587,-78.46308000
12.62218587,-73.99212000
12.62474587,-73.99212000
12.62730587,-73.99212000
12.62986587,-73.99212000
12.63242587,-73.99212000
12.63498587,-73.99212000
12.63754587,-73.99212000
12.64010587,-73.99212000
12.64266587,-73.99212000
12.64522587,-73.99212000
12.64778587,-78.46308000
12.65034587,-73.99212000
12.65290587,-73.99212000
12.65546587,-73.99212000
12.65802587,-73.99212000
12.66058587,-73.99212000
12.66314587,-73.99212000
12.66570587,-73.99212000
12.66826587,-73.99212000
12.67082587,-73.99212000
12.67338587,-73.99212000
12.67594587,-73.99212000
12.67850587,-73.99212000
12.68106587,-73.99212000
12.68362587,-73.99212000
12.68618587,-73.99212000
12.68874587,-78.46308000
12.69130587,-73.99212000
12.69386587,-69.50591000
12.69642587,-73.99212000
12.69898587,-78.46308000
12.70154587,-73.99212000
12.70410587,-73.99212000
12.70666587,-73.99212000
12.70922587,-73.99212000
12.71178587,-73.99212000
12.71434587,-73.99212000
12.71690587,-73.99212000
12.71946587,-73.99212000
12.72202587,-73.99212000
12.72458587,-73.99212000
12.72714587,-73.99212000
12.72970587,-73.99212000
12.73226587,-73.99212000
12.73482587,-73.99212000
12.73738587,-73.99212000
12.73994587,-73.99212000
12.74250587,-73.99212000
12.74506587,-73.99212000
12.74762587,-73.99212000
12.75018587,-73.99212000
12.75274587,-73.99212000
12.75530587,-73.99212000
12.75786587,-73.99212000
12.76042587,-73.99212000
12.76298587,-73.99212000
12.76554587,-73.99212000
12.76810587,-73.99212000
12.77066587,-73.99212000
12.77322587,-73.99212000
12.77578587,-73.99212000
12.77834587,-73.99212000
12.78090587,-69.50591000
12.78346587,-73.99212000
12.78602587,-73.99212000
12.78858587,-73.99212000
12.79114587,-73.99212000
12.79370587,-73.99212000
12.79626587,-73.99212000
12.79882587,-73.99212000
12.80138587,-73.99212000
12.80394587,-73.99212000
12.80650587,-73.99212000
12.80906587,-73.99212000
12.81162587,-73.99212000
12.81418587,-73.99212000
12.81674587,-73.99212000
12.81930587,-73.99212000
12.82186587,-69.50591000
12.82442587,-73.99212000
12.82698587,-73.99212000
12.82954587,-73.99212000
12.83210587,-73.99212000
12.83466587,-73.99212000
12.83722587,-73.99212000
12.83978587,-73.99212000
12.84234587,-78.46308000
12.84490587,-73.99212000
12.84746587,-78.46308000
12.85002587,-73.99212000
12.85258587,-73.99212000
12.85514587,-73.99212000
12.85770587,-78.46308000
12.86026587,-73.99212000
12.86282587,-78.46308000
12.86538587,-73.99212000
12.86794587,-73.99212000
12.87050587,-78.46308000
12.87306587,-73.99212000
12.87562587,-73.99212000
12.87818587,-73.99212000
12.88074587,-73.99212000
12.88330586,-73.99212000
12.88586586,-73.99212000
12.88842586,-73.99212000
12.89098586,-73.99212000
12.89354586,-73.99212000
12.89610586,-73.99212000
12.89866586,-73.99212000
12.90122586,-78.46308000
12.90378586,-73.99212000
12.90634586,-73.99212000
12.90890586,-78.46308000
12.91146586,-73.99212000
12.91402586,-73.99212000
12.91658586,-73.99212000
12.91914586,-78.46308000
12.92170586,-73.99212000
12.92426586,-78.46308000
12.92682586,-78.46308000
12.92938586,-73.99212000
12.93194586,-73.99212000
12.93450586,-78.46308000
12.93706586,-78.46308000
12.93962586,-78.46308000
12.94218586,-73.99212000
12.94474586,-73.99212000
12.94730586,-73.99212000
12.94986586,-73.99212000
12.95242586,-73.99212000
12.95498586,-73.99212000
12.95754586,-73.99212000
12.96010586,-73.99212000
12.96266586,-73.99212000
12.96522586,-73.99212000
12.96778586,-73.99212000
12.97034586,-78.46308000
12.97290586,-73.99212000
12.97546586,-73.99212000
12.97802586,-73.99212000
12.98058586,-73.99212000
12.98314586,-73.99212000
12.98570586,-73.99212000
12.98826586,-73.99212000
12.99082586,-73.99212000
12.99338586,-73.99212000
12.99594586,-78.46308000
12.99850586,-73.99212000
13.00106586,-73.99212000
13.00362586,-73.99212000
13.00618586,-73.99212000
13.00874586,-73.99212000
13.01130586,-73.99212000
13.01386586,-78.46308000
13.01642586,-78.46308000
13.01898586,-73.99212000
13.02154586,-78.46308000
13.02410586,-78.46308000
13.02666586,-78.46308000
13.02922586,-78.46308000
13.03178586,-78.46308000
13.03434586,-73.99212000
13.03690586,-73.99212000
13.03946586,-78.46308000
13.04202586,-78.46308000
13.04458586,-78.46308000
13.04714586,-73.99212000
13.04970586,-78.46308000
13.05226586,-73.99212000
13.05482586,-78.46308000
13.05738586,-78.46308000
13.05994586,-78.46308000
13.06250586,-73.99212000
13.06506586,-73.99212000
13.06762586,-78.46308000
13.07018586,-73.99212000
13.07274586,-73.99212000
13.07530586,-73.99212000
13.07786586,-73.99212000
13.08042586,-73.99212000
13.08298586,-73.99212000
13.08554586,-73.99212000
13.08810586,-73.99212000
13.09066586,-73.99212000
13.09322586,-73.99212000
13.09578586,-73.99212000
13.09834586,-73.99212000
13.10090586,-73.99212000
13.10346586,-73.99212000
13.10602586,-73.99212000
13.10858586,-73.99212000
13.11114586,-73.99212000
13.11370586,-73.99212000
13.11626586,-73.99212000
13.11882586,-73.99212000
13.12138586,-73.99212000
13.12394586,-78.46308000
13.12650586,-73.99212000
13.12906586,-73.99212000
13.13162586,-73.99212000
13.13418586,-73.99212000
13.13674586,-78.46308000
13.13930586,-73.99212000
13.14186586,-78.46308000
13.14442586,-73.99212000
13.14698586,-73.99212000
13.14954586,-73.99212000
13.15210586,-73.99212000
13.15466586,-78.46308000
13.15722586,-73.99212000
13.15978586,-73.99212000
13.16234586,-73.99212000
13.16490586,-73.99212000
13.16746586,-73.99212000
13.17002586,-73.99212000
13.17258586,-78.46308000
13.17514586,-73.99212000
13.17770586,-73.99212000
13.18026586,-73.99212000
13.18282586,-78.46308000
13.18538586,-73.99212000
13.18794586,-73.99212000
13.19050586,-73.99212000
13.19306586,-78.46308000
13.19562586,-73.99212000
13.19818586,-73.99212000
13.20074586,-73.99212000
13.20330586,-69.50591000
13.20586586,-73.99212000
13.20842586,-73.99212000
13.21098586,-73.99212000
13.21354586,-73.99212000
13.21610586,-73.99212000
13.21866586,-73.99212000
13.22122586,-73.99212000
13.22378586,-73.99212000
13.22634586,-73.99212000
13.22890586,-73.99212000
13.23146586,-69.50591000
13.23402586,-73.99212000
13.23658586,-73.99212000
13.23914586,-69.50591000
13.24170586,-73.99212000
13.24426586,-73.99212000
13.24682586,-73.99212000
13.24938586,-73.99212000
13.25194586,-73.99212000
13.25450586,-73.99212000
13.25706586,-73.99212000
13.25962586,-78.46308000
13.26218586,-78.46308000
13.26474586,-73.99212000
13.26730586,-73.99212000
13.26986586,-73.99212000
13.27242586,-73.99212000
13.27498586,-73.99212000
13.27754586,-73.99212000
13.28010586,-73.99212000
13.28266586,-69.50591000
13.28522586,-73.99212000
13.28778586,-69.50591000
13.29034586,-73.99212000
13.29290586,-73.99212000
13.29546586,-73.99212000
13.29802586,-73.99212000
13.30058586,-73.99212000
13.30314586,-73.99212000
13.30570586,-73.99212000
13.30826586,-73.99212000
13.31082586,-73.99212000
13.31338586,-73.99212000
13.31594586,-73.99212000
13.31850586,-73.99212000
13.32106586,-73.99212000
13.32362586,-73.99212000
13.32618586,-73.99212000
13.32874586,-73.99212000
13.33130586,-78.46308000
13.33386586,-73.99212000
13.33642586,-73.99212000
13.33898586,-73.99212000
13.34154586,-73.99212000
13.34410586,-73.99212000
13.34666586,-73.99212000
13.34922586,-73.99212000
13.35178586,-73.99212000
13.35434586,-73.99212000
13.35690586,-73.99212000
13.35946586,-73.99212000
13.36202586,-73.99212000
13.36458586,-69.50591000
13.36714586,-73.99212000
13.36970586,-73.99212000
13.37226586,-69.50591000
13.37482586,-73.99212000
13.37738586,-73.99212000
13.37994586,-73.99212000
13.38250586,-73.99212000
13.38506586,-73.99212000
13.38762586,-73.99212000
13.39018586,-73.99212000
13.39274586,-69.50591000
13.39530586,-73.99212000
13.39786586,-69.50591000
13.40042586,-73.99212000
13.40298586,-73.99212000
13.40554586,-73.99212000
13.40810586,-73.99212000
13.41066586,-73.99212000
13.41322586,-73.99212000
13.41578586,-73.99212000
13.41834586,-73.99212000
13.42090586,-73.99212000
13.42346586,-73.99212000
13.42602586,-73.99212000
13.42858586,-73.99212000
13.43114586,-73.99212000
13.43370586,-69.50591000
13.43626586,-73.99212000
13.43882586,-73.99212000
13.44138586,-69.50591000
13.44394586,-69.50591000
13.44650586,-69.50591000
13.44906586,-69.50591000
13.45162586,-69.50591000
13.45418586,-69.50591000
13.45674586,-69.50591000
13.45930586,-73.99212000
13.46186586,-69.50591000
13.46442586,-73.99212000
13.46698586,-73.99212000
13.46954586,-73.99212000
13.47210586,-69.50591000
13.47466586,-73.99212000
13.47722586,-73.99212000
13.47978586,-73.99212000
13.48234586,-73.99212000
13.48490586,-73.99212000
13.48746586,-73.99212000
13.49002586,-78.46308000
13.49258586,-73.99212000
13.49514586,-73.99212000
13.49770586,-69.50591000
13.50026586,-73.99212000
13.50282586,-73.99212000
13.50538586,-73.99212000
13.50794586,-73.99212000
13.51050586,-73.99212000
13.51306586,-73.99212000
13.51562586,-73.99212000
13.51818586,-69.50591000
13.52074586,-73.99212000
13.52330586,-73.99212000
13.52586586,-69.50591000
13.52842586,-69.50591000
13.53098586,-69.50591000
13.53354586,-69.50591000
13.53610586,-78.46308000
13.53866586,-73.99212000
13.54122586,-69.50591000
13.54378586,-73.99212000
13.54634586,-73.99212000
13.54890586,-73.99212000
13.55146586,-69.50591000
13.55402586,-73.99212000
13.55658586,-69.50591000
13.55914586,-69.50591000
13.56170586,-73.99212000
13.56426586,-73.99212000
13.56682586,-73.99212000
13.56938586,-73.99212000
13.57194586,-73.99212000
13.57450586,-73.99212000
13.57706586,-73.99212000
13.57962586,-73.99212000
13.58218586,-73.99212000
13.58474586,-73.99212000
13.58730586,-73.99212000
13.58986586,-73.99212000
13.59242586,-73.99212000
13.59498586,-73.99212000
13.59754586,-73.99212000
13.60010586,-73.99212000
13.60266586,-73.99212000
13.60522586,-69.50591000
13.60778586,-69.50591000
13.61034586,-78.46308000
13.61290586,-69.50591000
13.61546586,-73.99212000
13.61802586,-73.99212000
13.62058586,-73.99212000
13.62314586,-73.99212000
13.62570586,-73.99212000
13.62826586,-73.99212000
13.63082586,-73.99212000
13.63338586,-73.99212000
13.63594586,-73.99212000
13.63850586,-73.99212000
13.64106586,-73.99212000
13.64362586,-73.99212000
13.64618586,-73.99212000
13.64874586,-78.46308000
13.65130586,-73.99212000
13.65386586,-73.99212000
13.65642586,-73.99212000
13.65898586,-73.99212000
13.66154586,-73.99212000
13.66410586,-73.99212000
13.66666586,-73.99212000
13.66922586,-73.99212000
13.67178586,-73.99212000
13.67434586,-73.99212000
13.67690586,-73.99212000
13.67946586,-73.99212000
13.68202586,-73.99212000
13.68458586,-73.99212000
13.68714586,-78.46308000
13.68970586,-78.46308000
13.69226586,-73.99212000
13.69482586,-73.99212000
13.69738586,-78.46308000
13.69994586,-78.46308000
13.70250586,-73.99212000
13.70506586,-73.99212000
13.70762586,-78.46308000
13.71018586,-78.46308000
13.71274586,-73.99212000
13.71530586,-73.99212000
13.71786586,-78.46308000
13.72042586,-78.46308000
13.72298586,-73.99212000
13.72554586,-73.99212000
13.72810586,-73.99212000
13.73066586,-73.99212000
13.73322586,-78.46308000
13.73578586,-78.46308000
13.73834586,-78.46308000
13.74090586,-73.99212000
13.74346586,-73.99212000
13.74602586,-73.99212000
13.74858586,-73.99212000
13.75114586,-78.46308000
13.75370586,-73.99212000
13.75626586,-73.99212000
13.75882586,-73.99212000
13.76138586,-78.46308000
13.76394586,-73.99212000
13.76650586,-78.46308000
13.76906586,-78.46308000
13.77162586,-73.99212000
13.77418586,-73.99212000
13.77674586,-78.46308000
13.77930586,-73.99212000
13.78186586,-73.99212000
13.78442586,-78.46308000
13.78698586,-73.99212000
13.78954586,-73.99212000
13.79210586,-73.99212000
13.79466586,-73.99212000
13.79722586,-73.99212000
13.79978586,-73.99212000
13.80234586,-73.99212000
13.80490586,-78.46308000
13.80746586,-73.99212000
13.81002586,-73.99212000
13.81258586,-78.46308000
13.81514586,-73.99212000
13.81770586,-73.99212000
13.82026586,-73.99212000
13.82282586,-78.46308000
13.82538586,-78.46308000
13.82794586,-73.99212000
13.83050586,-78.46308000
13.83306586,-73.99212000
13.83562586,-73.99212000
13.83818586,-73.99212000
13.84074586,-78.46308000
13.84330586,-78.46308000
13.84586586,-73.99212000
13.84842586,-73.99212000
13.85098586,-73.99212000
13.85354586,-78.46308000
13.85610586,-78.46308000
13.85866586,-78.46308000
13.86122586,-78.46308000
13.86378586,-78.46308000
13.86634586,-78.46308000
13.86890586,-78.46308000
13.87146586,-78.46308000
13.87402586,-78.46308000
13.87658586,-78.46308000
13.87914586,-78.46308000
13.88170586,-78.46308000
13.88426586,-78.46308000
13.88682586,-78.46308000
13.88938586,-73.99212000
13.89194586,-78.46308000
13.89450586,-78.46308000
13.89706586,-78.46308000
13.89962586,-78.46308000
13.90218586,-78.46308000
13.90474586,-78.46308000
13.90730586,-78.46308000
13.90986586,-78.46308000
13.91242586,-78.46308000
13.91498586,-78.46308000
13.91754586,-78.46308000
13.92010586,-78.46308000
13.92266586,-78.46308000
13.92522586,-78.46308000
13.92778586,-78.46308000
13.93034586,-78.46308000
13.93290586,-78.46308000
13.93546586,-78.46308000
13.93802586,-78.46308000
13.94058586,-78.46308000
13.94314586,-78.46308000
13.94570586,-78.46308000
13.94826586,-78.46308000
13.95082586,-78.46308000
13.95338586,-78.46308000
13.95594586,-78.46308000
13.95850586,-78.46308000
13.96106586,-78.46308000
13.96362586,-78.46308000
13.96618586,-78.46308000
13.96874586,-78.46308000
13.97130586,-78.46308000
13.97386586,-78.46308000
13.97642586,-78.46308000
13.97898586,-78.46308000
13.98154586,-78.46308000
13.98410586,-78.46308000
13.98666586,-78.46308000
13.98922586,-78.46308000
13.99178586,-78.46308000
13.99434586,-78.46308000
13.99690586,-78.46308000
13.99946586,-78.46308000
14.00202586,-78.46308000
14.00458586,-78.46308000
14.00714586,-78.46308000
14.00970586,-78.46308000
14.01226586,-78.46308000
14.01482586,-78.46308000
14.01738586,-78.46308000
14.01994586,-78.46308000
14.02250586,-78.46308000
14.02506586,-78.46308000
14.02762586,-78.46308000
14.03018586,-78.46308000
14.03274586,-78.46308000
14.03530586,-78.46308000
14.03786586,-78.46308000
14.04042586,-78.46308000
14.04298586,-78.46308000
14.04554586,-78.46308000
14.04810586,-78.46308000
14.05066586,-78.46308000
14.05322586,-78.46308000
14.05578586,-78.46308000
14.05834586,-78.46308000
14.06090586,-78.46308000
14.06346586,-78.46308000
14.06602586,-78.46308000
14.06858586,-78.46308000
14.07114586,-78.46308000
14.07370586,-78.46308000
14.07626586,-78.46308000
14.07882586,-78.46308000
14.08138586,-78.46308000
14.08394586,-78.46308000
14.08650586,-78.46308000
14.08906586,-73.99212000
14.09162586,-78.46308000
14.09418586,-78.46308000
14.09674586,-78.46308000
14.09930586,-78.46308000
14.10186586,-78.46308000
14.10442586,-78.46308000
14.10698586,-78.46308000
14.10954586,-78.46308000
14.11210586,-78.46308000
14.11466586,-78.46308000
14.11722586,-78.46308000
14.11978586,-78.46308000
14.12234586,-78.46308000
14.12490586,-78.46308000
14.12746586,-78.46308000
14.13002586,-78.46308000
14.13258586,-78.46308000
14.13514586,-78.46308000
14.13770586,-78.46308000
14.14026586,-78.46308000
14.14282586,-78.46308000
14.14538586,-78.46308000
14.14794586,-78.46308000
14.15050586,-78.46308000
14.15306586,-78.46308000
14.15562586,-78.46308000
14.15818586,-78.46308000
14.16074586,-73.99212000
14.16330586,-73.99212000
14.16586586,-73.99212000
14.16842586,-78.46308000
14.17098586,-78.46308000
14.17354586,-78.46308000
14.17610586,-73.99212000
14.17866586,-73.99212000
14.18122586,-73.99212000
14.18378586,-78.46308000
14.18634586,-73.99212000
14.18890586,-78.46308000
14.19146586,-73.99212000
14.19402586,-73.99212000
14.19658586,-78.46308000
14.19914586,-73.99212000
14.20170586,-78.46308000
14.20426586,-73.99212000
14.20682586,-78.46308000
14.20938586,-78.46308000
14.21194586,-73.99212000
14.21450586,-73.99212000
14.21706586,-73.99212000
14.21962586,-73.99212000
14.22218586,-73.99212000
14.22474586,-78.46308000
14.22730586,-73.99212000
14.22986586,-78.46308000
14.23242586,-73.99212000
14.23498586,-73.99212000
14.23754586,-73.99212000
14.24010586,-73.99212000
14.24266586,-78.46308000
14.24522586,-78.46308000
14.24778586,-73.99212000
14.25034586,-73.99212000
14.25290586,-73.99212000
14.25546586,-73.99212000
14.25802586,-78.46308000
14.26058586,-73.99212000
14.26314586,-73.99212000
14.26570586,-73.99212000
14.26826586,-73.99212000
14.27082586,-78.46308000
14.27338586,-73.99212000
14.27594586,-73.99212000
14.27850586,-73.99212000
14.28106586,-73.99212000
14.28362586,-73.99212000
14.28618586,-73.99212000
14.28874586,-73.99212000
14.29130586,-78.46308000
14.29386586,-73.99212000
14.29642586,-73.99212000
14.29898586,-73.99212000
14.30154586,-73.99212000
14.30410586,-73.99212000
14.30666586,-73.99212000
14.30922586,-73.99212000
14.31178586,-73.99212000
14.31434586,-73.99212000
14.31690586,-73.99212000
14.31946586,-73.99212000
14.32202586,-73.99212000
14.32458586,-73.99212000
14.32714586,-73.99212000
14.32970586,-78.46308000
14.33226586,-73.99212000
14.33482586,-73.99212000
14.33738586,-73.99212000
14.33994586,-73.99212000
14.34250586,-73.99212000
14.34506586,-73.99212000
14.34762586,-73.99212000
14.35018586,-69.50591000
14.35274586,-69.50591000
14.35530586,-73.99212000
14.35786586,-73.99212000
14.36042586,-73.99212000
14.36298586,-69.50591000
14.36554586,-69.50591000
14.36810586,-73.99212000
14.37066586,-73.99212000
14.37322586,-73.99212000
14.37578586,-73.99212000
14.37834586,-73.99212000
14.38090586,-69.50591000
14.38346586,-73.99212000
14.38602586,-73.99212000
14.38858586,-73.99212000
14.39114586,-69.50591000
14.39370586,-73.99212000
14.39626586,-73.99212000
14.39882586,-73.99212000
14.40138586,-69.50591000
14.40394586,-73.99212000
14.40650586,-73.99212000
14.40906586,-69.50591000
14.41162586,-73.99212000
14.41418586,-73.99212000
14.41674586,-73.99212000
14.41930586,-73.99212000
14.42186586,-73.99212000
14.42442586,-73.99212000
14.42698586,-73.99212000
14.42954586,-69.50591000
14.43210586,-69.50591000
14.43466586,-73.99212000
14.43722586,-73.99212000
14.43978586,-69.50591000
14.44234586,-73.99212000
14.44490586,-69.50591000
14.44746586,-73.99212000
14.45002586,-73.99212000
14.45258586,-73.99212000
14.45514586,-69.50591000
14.45770586,-69.50591000
14.46026586,-73.99212000
14.46282586,-73.99212000
14.46538586,-73.99212000
14.46794586,-69.50591000
14.47050586,-73.99212000
14.47306586,-73.99212000
14.47562586,-73.99212000
14.47818586,-73.99212000
14.48074586,-73.99212000
14.48330586,-73.99212000
14.48586586,-73.99212000
14.48842586,-73.99212000
14.49098586,-73.99212000
14.49354586,-73.99212000
14.49610586,-69.50591000
14.49866586,-73.99212000
14.50122586,-73.99212000
14.50378586,-73.99212000
14.50634586,-73.99212000
14.50890586,-73.99212000
14.51146586,-73.99212000
14.51402586,-69.50591000
14.51658586,-73.99212000
14.51914586,-73.99212000
14.52170586,-73.99212000
14.52426586,-73.99212000
14.52682586,-69.50591000
14.52938585,-73.99212000
14.53194585,-73.99212000
14.53450585,-73.99212000
14.53706585,-73.99212000
14.53962585,-73.99212000
14.54218585,-73.99212000
14.54474585,-73.99212000
14.54730585,-73.99212000
14.54986585,-69.50591000
14.55242585,-69.50591000
14.55498585,-73.99212000
14.55754585,-69.50591000
14.56010585,-73.99212000
14.56266585,-69.50591000
14.56522585,-73.99212000
14.56778585,-73.99212000
14.57034585,-73.99212000
14.57290585,-69.50591000
14.57546585,-73.99212000
14.57802585,-73.99212000
14.58058585,-73.99212000
14.58314585,-73.99212000
14.58570585,-73.99212000
14.58826585,-73.99212000
14.59082585,-73.99212000
14.59338585,-69.50591000
14.59594585,-69.50591000
14.59850585,-69.50591000
14.60106585,-73.99212000
14.60362585,-73.99212000
14.60618585,-73.99212000
14.60874585,-73.99212000
14.61130585,-73.99212000
14.61386585,-73.99212000
14.61642585,-73.99212000
14.61898585,-69.50591000
14.62154585,-69.50591000
14.62410585,-78.46308000
14.62666585,-73.99212000
14.62922585,-78.46308000
14.63178585,-73.99212000
14.63434585,-73.99212000
14.63690585,-73.99212000
14.63946585,-73.99212000
14.64202585,-73.99212000
14.64458585,-73.99212000
14.64714585,-73.99212000
14.64970585,-73.99212000
14.65226585,-73.99212000
14.65482585,-69.50591000
14.65738585,-73.99212000
14.65994585,-73.99212000
14.66250585,-73.99212000
14.66506585,-73.99212000
14.66762585,-73.99212000
14.67018585,-73.99212000
14.67274585,-73.99212000
14.67530585,-73.99212000
14.67786585,-73.99212000
14.68042585,-73.99212000
14.68298585,-73.99212000
14.68554585,-73.99212000
14.68810585,-73.99212000
14.69066585,-73.99212000
14.69322585,-69.50591000
14.69578585,-73.99212000
14.69834585,-73.99212000
14.70090585,-73.99212000
14.70346585,-73.99212000
14.70602585,-73.99212000
14.70858585,-73.99212000
14.71114585,-73.99212000
14.71370585,-73.99212000
14.71626585,-73.99212000
14.71882585,-73.99212000
14.72138585,-73.99212000
14.72394585,-73.99212000
14.72650585,-73.99212000
14.72906585,-73.99212000
14.73162585,-73.99212000
14.73418585,-73.99212000
14.73674585,-73.99212000
14.73930585,-73.99212000
14.74186585,-73.99212000
14.74442585,-73.99212000
14.74698585,-73.99212000
14.74954585,-73.99212000
14.75210585,-73.99212000
14.75466585,-73.99212000
14.75722585,-73.99212000
14.75978585,-78.46308000
14.76234585,-78.46308000
14.76490585,-73.99212000
14.76746585,-73.99212000
14.77002585,-73.99212000
14.77258585,-73.99212000
14.77514585,-73.99212000
14.77770585,-73.99212000
14.78026585,-73.99212000
14.78282585,-73.99212000
14.78538585,-73.99212000
14.78794585,-73.99212000
14.79050585,-73.99212000
14.79306585,-78.46308000
14.79562585,-73.99212000
14.79818585,-73.99212000
14.80074585,-73.99212000
14.80330585,-73.99212000
14.80586585,-73.99212000
14.80842585,-69.50591000
14.81098585,-73.99212000
14.81354585,-73.99212000
14.81610585,-73.99212000
14.81866585,-73.99212000
14.82122585,-73.99212000
14.82378585,-78.46308000
14.82634585,-73.99212000
14.82890585,-73.99212000
14.83146585,-78.46308000
14.83402585,-73.99212000
14.83658585,-73.99212000
14.83914585,-73.99212000
14.84170585,-73.99212000
14.84426585,-73.99212000
14.84682585,-78.46308000
14.84938585,-73.99212000
14.85194585,-73.99212000
14.85450585,-73.99212000
14.85706585,-73.99212000
14.85962585,-73.99212000
14.86218585,-73.99212000
14.86474585,-78.46308000
14.86730585,-73.99212000
14.86986585,-73.99212000
14.87242585,-73.99212000
14.87498585,-78.46308000
14.87754585,-73.99212000
14.88010585,-73.99212000
14.88266585,-73.99212000
14.88522585,-73.99212000
14.88778585,-73.99212000
14.89034585,-73.99212000
14.89290585,-73.99212000
14.89546585,-73.99212000
14.89802585,-73.99212000
14.90058585,-73.99212000
14.90314585,-73.99212000
14.90570585,-73.99212000
14.90826585,-78.46308000
14.91082585,-73.99212000
14.91338585,-73.99212000
14.91594585,-73.99212000
14.91850585,-73.99212000
14.92106585,-78.46308000
14.92362585,-73.99212000
14.92618585,-73.99212000
14.92874585,-73.99212000
14.93130585,-73.99212000
14.93386585,-73.99212000
14.93642585,-73.99212000
14.93898585,-73.99212000
14.94154585,-78.46308000
14.94410585,-73.99212000
14.94666585,-73.99212000
14.94922585,-78.46308000
14.95178585,-73.99212000
14.95434585,-78.46308000
14.95690585,-73.99212000
14.95946585,-73.99212000
14.96202585,-78.46308000
14.96458585,-73.99212000
14.96714585,-73.99212000
14.96970585,-73.99212000
14.97226585,-73.99212000
14.97482585,-78.46308000
14.97738585,-78.46308000
14.97994585,-78.46308000
14.98250585,-78.46308000
14.98506585,-78.46308000
14.98762585,-78.46308000
14.99018585,-78.46308000
14.99274585,-78.46308000
14.99530585,-78.46308000
14.99786585,-73.99212000
15.00042585,-78.46308000
15.00298585,-78.46308000
15.00554585,-78.46308000
15.00810585,-78.46308000
15.01066585,-73.99212000
15.01322585,-73.99212000
15.01578585,-73.99212000
15.01834585,-78.46308000
15.02090585,-73.99212000
15.02346585,-78.46308000
15.02602585,-78.46308000
15.02858585,-78.46308000
15.03114585,-73.99212000
15.03370585,-78.46308000
15.03626585,-73.99212000
15.03882585,-78.46308000
15.04138585,-78.46308000
15.04394585,-78.46308000
15.04650585,-73.99212000
15.04906585,-78.46308000
15.05162585,-78.46308000
15.05418585,-78.46308000
15.05674585,-78.46308000
15.05930585,-78.46308000
15.06186585,-78.46308000
15.06442585,-78.46308000
15.06698585,-78.46308000
15.06954585,-73.99212000
15.07210585,-73.99212000
15.07466585,-78.46308000
15.07722585,-73.99212000
15.07978585,-73.99212000
15.08234585,-78.46308000
15.08490585,-73.99212000
15.08746585,-78.46308000
15.09002585,-73.99212000
15.09258585,-73.99212000
15.09514585,-78.46308000
15.09770585,-73.99212000
15.10026585,-78.46308000
15.10282585,-78.46308000
15.10538585,-78.46308000
15.10794585,-78.46308000
15.11050585,-73.99212000
15.11306585,-73.99212000
15.11562585,-78.46308000
15.11818585,-73.99212000
15.12074585,-78.46308000
15.12330585,-78.46308000
15.12586585,-78.46308000
15.12842585,-73.99212000
15.13098585,-73.99212000
15.13354585,-73.99212000
15.13610585,-78.46308000
15.13866585,-73.99212000
15.14122585,-78.46308000
15.14378585,-78.46308000
15.14634585,-78.46308000
15.14890585,-78.46308000
15.15146585,-78.46308000
15.15402585,-78.46308000
15.15658585,-73.99212000
15.15914585,-78.46308000
15.16170585,-73.99212000
15.16426585,-78.46308000
15.16682585,-73.99212000
15.16938585,-73.99212000
15.17194585,-78.46308000
15.17450585,-78.46308000
15.17706585,-73.99212000
15.17962585,-73.99212000
15.18218585,-73.99212000
15.18474585,-78.46308000
15.18730585,-78.46308000
15.18986585,-78.46308000
15.19242585,-78.46308000
15.19498585,-78.46308000
15.19754585,-73.99212000
15.20010585,-73.99212000
15.20266585,-73.99212000
15.20522585,-73.99212000
15.20778585,-78.46308000
15.21034585,-78.46308000
15.21290585,-73.99212000
15.21546585,-73.99212000
15.21802585,-78.46308000
15.22058585,-73.99212000
15.22314585,-78.46308000
15.22570585,-78.46308000
15.22826585,-78.46308000
15.23082585,-78.46308000
15.23338585,-73.99212000
15.23594585,-73.99212000
15.23850585,-73.99212000
15.24106585,-73.99212000
15.24362585,-73.99212000
15.24618585,-73.99212000
15.24874585,-73.99212000
15.25130585,-78.46308000
15.25386585,-78.46308000
15.25642585,-73.99212000
15.25898585,-73.99212000
15.26154585,-73.99212000
15.26410585,-73.99212000
15.26666585,-73.99212000
15.26922585,-73.99212000
15.27178585,-73.99212000
15.27434585,-78.46308000
15.27690585,-78.46308000
15.27946585,-73.99212000
15.28202585,-73.99212000
15.28458585,-78.46308000
15.28714585,-73.99212000
15.28970585,-73.99212000
15.29226585,-73.99212000
15.29482585,-73.99212000
15.29738585,-73.99212000
15.29994585,-78.46308000
15.30250585,-78.46308000
15.30506585,-78.46308000
15.30762585,-73.99212000
15.31018585,-78.46308000
15.31274585,-78.46308000
15.31530585,-78.46308000
15.31786585,-73.99212000
15.32042585,-78.46308000
15.32298585,-73.99212000
15.32554585,-73.99212000
15.32810585,-73.99212000
15.33066585,-73.99212000
15.33322585,-73.99212000
15.33578585,-73.99212000
15.33834585,-73.99212000
15.34090585,-73.99212000
15.34346585,-78.46308000
15.34602585,-78.46308000
15.34858585,-78.46308000
15.35114585,-73.99212000
15.35370585,-78.46308000
15.35626585,-78.46308000
15.35882585,-73.99212000
15.36138585,-73.99212000
15.36394585,-73.99212000
15.36650585,-78.46308000
15.36906585,-73.99212000
15.37162585,-78.46308000
15.37418585,-73.99212000
15.37674585,-78.46308000
15.37930585,-78.46308000
15.38186585,-73.99212000
15.38442585,-78.46308000
15.38698585,-73.99212000
15.38954585,-73.99212000
15.39210585,-78.46308000
15.39466585,-73.99212000
15.39722585,-78.46308000
15.39978585,-73.99212000
15.40234585,-78.46308000
15.40490585,-73.99212000
15.40746585,-73.99212000
15.41002585,-78.46308000
15.41258585,-78.46308000
15.41514585,-78.46308000
15.41770585,-78.46308000
15.42026585,-78.46308000
15.42282585,-78.46308000
15.42538585,-78.46308000
15.42794585,-78.46308000
15.43050585,-78.46308000
15.43306585,-78.46308000
15.43562585,-78.46308000
15.43818585,-78.46308000
15.44074585,-78.46308000
15.44330585,-78.46308000
15.44586585,-78.46308000
15.44842585,-78.46308000
15.45098585,-78.46308000
15.45354585,-73.99212000
15.45610585,-78.46308000
15.45866585,-78.46308000
15.46122585,-73.99212000
15.46378585,-78.46308000
15.46634585,-78.46308000
15.46890585,-78.46308000
15.47146585,-78.46308000
15.47402585,-73.99212000
15.47658585,-73.99212000
15.47914585,-73.99212000
15.48170585,-73.99212000
15.48426585,-73.99212000
15.48682585,-73.99212000
15.48938585,-78.46308000
15.49194585,-73.99212000
15.49450585,-73.99212000
15.49706585,-73.99212000
15.49962585,-78.46308000
15.50218585,-73.99212000
15.50474585,-73.99212000
15.50730585,-73.99212000
15.50986585,-73.99212000
15.51242585,-73.99212000
15.51498585,-73.99212000
15.51754585,-78.46308000
15.52010585,-73.99212000
15.52266585,-73.99212000
15.52522585,-78.46308000
15.52778585,-73.99212000
15.53034585,-78.46308000
15.53290585,-73.99212000
15.53546585,-73.99212000
15.53802585,-73.99212000
15.54058585,-73.99212000
15.54314585,-69.50591000
15.54570585,-73.99212000
15.54826585,-73.99212000
15.55082585,-73.99212000
15.55338585,-73.99212000
15.55594585,-73.99212000
15.55850585,-73.99212000
15.56106585,-73.99212000
15.56362585,-69.50591000
15.56618585,-73.99212000
15.56874585,-69.50591000
15.57130585,-69.50591000
15.57386585,-73.99212000
15.57642585,-73.99212000
15.57898585,-73.99212000
15.58154585,-73.99212000
15.58410585,-69.50591000
15.58666585,-73.99212000
15.58922585,-73.99212000
15.59178585,-73.99212000
15.59434585,-73.99212000
15.59690585,-73.99212000
15.59946585,-69.50591000
15.60202585,-69.50591000
15.60458585,-73.99212000
15.60714585,-73.99212000
15.60970585,-73.99212000
15.61226585,-69.50591000
15.61482585,-73.99212000
15.61738585,-73.99212000
15.61994585,-73.99212000
15.62250585,-73.99212000
15.62506585,-69.50591000
15.62762585,-73.99212000
15.63018585,-73.99212000
15.63274585,-73.99212000
15.63530585,-73.99212000
15.63786585,-73.99212000
15.64042585,-73.99212000
15.64298585,-73.99212000
15.64554585,-73.99212000
15.64810585,-73.99212000
15.65066585,-69.50591000
15.65322585,-73.99212000
15.65578585,-73.99212000
15.65834585,-69.50591000
15.66090585,-73.99212000
15.66346585,-73.99212000
15.66602585,-73.99212000
15.66858585,-73.99212000
15.67114585,-73.99212000
15.67370585,-73.99212000
15.67626585,-73.99212000
15.67882585,-73.99212000
15.68138585,-73.99212000
15.68394585,-73.99212000
15.68650585,-78.46308000
15.68906585,-73.99212000
15.69162585,-78.46308000
15.69418585,-73.99212000
15.69674585,-73.99212000
15.69930585,-73.99212000
15.70186585,-73.99212000
15.70442585,-73.99212000
15.70698585,-73.99212000
15.70954585,-73.99212000
15.71210585,-78.46308000
15.71466585,-78.46308000
15.71722585,-73.99212000
15.71978585,-78.46308000
15.72234585,-73.99212000
15.72490585,-73.99212000
15.72746585,-78.46308000
15.73002585,-78.46308000
15.73258585,-78.46308000
15.73514585,-78.46308000
15.73770585,-73.99212000
15.74026585,-78.46308000
15.74282585,-73.99212000
15.74538585,-78.46308000
15.74794585,-78.46308000
15.75050585,-78.46308000
15.75306585,-78.46308000
15.75562585,-78.46308000
15.75818585,-73.99212000
15.76074585,-78.46308000
15.76330585,-78.46308000
15.76586585,-78.46308000
15.76842585,-78.46308000
15.77098585,-73.99212000
15.77354585,-78.46308000
15.77610585,-78.46308000
15.77866585,-78.46308000
15.78122585,-78.46308000
15.78378585,-78.46308000
15.78634585,-78.46308000
15.78890585,-78.46308000
15.79146585,-78.46308000
15.79402585,-78.46308000
15.79658585,-78.46308000
15.79914585,-78.46308000
15.80170585,-78.46308000
15.80426585,-78.46308000
15.80682585,-78.46308000
15.80938585,-78.46308000
15.81194585,-78.46308000
15.81450585,-78.46308000
15.81706585,-73.99212000
15.81962585,-78.46308000
15.82218585,-78.46308000
15.82474585,-78.46308000
15.82730585,-78.46308000
15.82986585,-78.46308000
15.83242585,-78.46308000
15.83498585,-78.46308000
15.83754585,-78.46308000
15.84010585,-73.99212000
15.84266585,-78.46308000
15.84522585,-78.46308000
15.84778585,-78.46308000
15.85034585,-78.46308000
15.85290585,-78.46308000
15.85546585,-73.99212000
15.85802585,-78.46308000
15.86058585,-78.46308000
15.86314585,-78.46308000
15.86570585,-73.99212000
15.86826585,-78.46308000
15.87082585,-78.46308000
15.87338585,-78.46308000
15.87594585,-73.99212000
15.87850585,-78.46308000
15.88106585,-73.99212000
15.88362585,-78.46308000
15.88618585,-73.99212000
15.88874585,-78.46308000
15.89130585,-73.99212000
15.89386585,-73.99212000
15.89642585,-73.99212000
15.89898585,-78.46308000
15.90154585,-78.46308000
15.90410585,-78.46308000
15.90666585,-73.99212000
15.90922585,-78.46308000
15.91178585,-73.99212000
15.91434585,-73.99212000
15.91690585,-78.46308000
15.91946585,-73.99212000
15.92202585,-78.46308000
15.92458585,-73.99212000
15.92714585,-78.46308000
15.92970585,-73.99212000
15.93226585,-73.99212000
15.93482585,-78.46308000
15.93738585,-78.46308000
15.93994585,-78.46308000
15.94250585,-78.46308000
15.94506585,-73.99212000
15.94762585,-73.99212000
15.95018585,-73.99212000
15.95274585,-73.99212000
15.95530585,-78.46308000
15.95786585,-73.99212000
15.96042585,-78.46308000
15.96298585,-78.46308000
15.96554585,-73.99212000
15.96810585,-73.99212000
15.97066585,-73.99212000
15.97322585,-73.99212000
15.97578585,-78.46308000
15.97834585,-73.99212000
15.98090585,-73.99212000
15.98346585,-73.99212000
15.98602585,-78.46308000
15.98858585,-73.99212000
15.99114585,-78.46308000
15.99370585,-73.99212000
15.99626585,-73.99212000
15.99882585,-78.46308000
16.00138585,-73.99212000
16.00394585,-73.99212000
16.00650585,-73.99212000
16.00906585,-78.46308000
16.01162585,-73.99212000
16.01418585,-73.99212000
16.01674585,-73.99212000
16.01930585,-73.99212000
16.02186585,-73.99212000
16.02442585,-73.99212000
16.02698585,-78.46308000
16.02954585,-73.99212000
16.03210585,-73.99212000
16.03466585,-73.99212000
16.03722585,-73.99212000
16.03978585,-73.99212000
16.04234585,-73.99212000
16.04490585,-73.99212000
16.04746585,-78.46308000
16.05002585,-73.99212000
16.05258585,-73.99212000
16.05514585,-73.99212000
16.05770585,-73.99212000
16.06026585,-78.46308000
16.06282585,-73.99212000
16.06538585,-73.99212000
16.06794585,-73.99212000
16.07050585,-73.99212000
16.07306585,-73.99212000
16.07562585,-73.99212000
16.07818585,-78.46308000
16.08074585,-78.46308000
16.08330585,-73.99212000
16.08586585,-78.46308000
16.08842585,-73.99212000
16.09098585,-73.99212000
16.09354585,-78.46308000
16.09610585,-73.99212000
16.09866585,-73.99212000
16.10122585,-73.99212000
16.10378585,-73.99212000
16.10634585,-73.99212000
16.10890585,-73.99212000
16.11146585,-73.99212000
16.11402585,-73.99212000
16.11658585,-73.99212000
16.11914585,-69.50591000
16.12170585,-73.99212000
16.12426585,-73.99212000
16.12682585,-73.99212000
16.12938585,-73.99212000
16.13194585,-73.99212000
16.13450585,-73.99212000
16.13706585,-73.99212000
16.13962585,-78.46308000
16.14218585,-73.99212000
16.14474585,-73.99212000
16.14730585,-73.99212000
16.14986585,-73.99212000
16.15242585,-73.99212000
16.15498585,-73.99212000
16.15754585,-73.99212000
16.16010585,-73.99212000
16.16266585,-73.99212000
16.16522585,-69.50591000
16.16778585,-73.99212000
16.17034585,-73.99212000
16.17290584,-73.99212000
16.17546584,-73.99212000
16.17802584,-73.99212000
16.18058584,-73.99212000
16.18314584,-73.99212000
16.18570584,-78.46308000
16.18826584,-78.46308000
16.19082584,-78.46308000
16.19338584,-73.99212000
16.19594584,-73.99212000
16.19850584,-78.46308000
16.20106584,-73.99212000
16.20362584,-73.99212000
16.20618584,-78.46308000
16.20874584,-73.99212000
16.21130584,-73.99212000
16.21386584,-73.99212000
16.21642584,-73.99212000
16.21898584,-73.99212000
16.22154584,-73.99212000
16.22410584,-73.99212000
16.22666584,-73.99212000
16.22922584,-73.99212000
16.23178584,-73.99212000
16.23434584,-73.99212000
16.23690584,-73.99212000
16.23946584,-78.46308000
16.24202584,-73.99212000
16.24458584,-78.46308000
16.24714584,-73.99212000
16.24970584,-78.46308000
16.25226584,-78.46308000
16.25482584,-78.46308000
16.25738584,-73.99212000
16.25994584,-78.46308000
16.26250584,-78.46308000
16.26506584,-78.46308000
16.26762584,-78.46308000
16.27018584,-78.46308000
16.27274584,-78.46308000
16.27530584,-78.46308000
16.27786584,-78.46308000
16.28042584,-78.46308000
16.28298584,-78.46308000
16.28554584,-78.46308000
16.28810584,-73.99212000
16.29066584,-78.46308000
16.29322584,-78.46308000
16.29578584,-78.46308000
16.29834584,-78.46308000
16.30090584,-73.99212000
16.30346584,-78.46308000
16.30602584,-78.46308000
16.30858584,-78.46308000
16.31114584,-78.46308000
16.31370584,-78.46308000
16.31626584,-78.46308000
16.31882584,-78.46308000
16.32138584,-78.46308000
16.32394584,-78.46308000
16.32650584,-78.46308000
16.32906584,-78.46308000
16.33162584,-78.46308000
16.33418584,-78.46308000
16.33674584,-78.46308000
16.33930584,-78.46308000
16.34186584,-78.46308000
16.34442584,-78.46308000
16.34698584,-78.46308000
16.34954584,-78.46308000
16.35210584,-78.46308000
16.35466584,-78.46308000
16.35722584,-78.46308000
16.35978584,-78.46308000
16.36234584,-78.46308000
16.36490584,-78.46308000
16.36746584,-73.99212000
16.37002584,-78.46308000
16.37258584,-73.99212000
16.37514584,-78.46308000
16.37770584,-78.46308000
16.38026584,-73.99212000
16.38282584,-78.46308000
16.38538584,-78.46308000
16.38794584,-78.46308000
16.39050584,-78.46308000
16.39306584,-78.46308000
16.39562584,-78.46308000
16.39818584,-78.46308000
16.40074584,-78.46308000
16.40330584,-78.46308000
16.40586584,-78.46308000
16.40842584,-78.46308000
16.41098584,-73.99212000
16.41354584,-78.46308000
16.41610584,-78.46308000
16.41866584,-78.46308000
16.42122584,-73.99212000
16.42378584,-73.99212000
16.42634584,-73.99212000
16.42890584,-78.46308000
16.43146584,-78.46308000
16.43402584,-78.46308000
16.43658584,-78.46308000
16.43914584,-78.46308000
16.44170584,-78.46308000
16.44426584,-78.46308000
16.44682584,-73.99212000
16.44938584,-78.46308000
16.45194584,-73.99212000
16.45450584,-78.46308000
16.45706584,-78.46308000
16.45962584,-78.46308000
16.46218584,-78.46308000
16.46474584,-73.99212000
16.46730584,-78.46308000
16.46986584,-78.46308000
16.47242584,-78.46308000
16.47498584,-78.46308000
16.47754584,-73.99212000
16.48010584,-78.46308000
16.48266584,-78.46308000
16.48522584,-78.46308000
16.48778584,-73.99212000
16.49034584,-73.99212000
16.49290584,-73.99212000
16.49546584,-78.46308000
16.49802584,-73.99212000
16.50058584,-73.99212000
16.50314584,-73.99212000
16.50570584,-73.99212000
16.50826584,-69.50591000
16.51082584,-78.46308000
16.51338584,-73.99212000
16.51594584,-73.99212000
16.51850584,-73.99212000
16.52106584,-73.99212000
16.52362584,-73.99212000
16.52618584,-73.99212000
16.52874584,-73.99212000
16.53130584,-78.46308000
16.53386584,-73.99212000
16.53642584,-73.99212000
16.53898584,-73.99212000
16.54154584,-73.99212000
16.54410584,-78.46308000
16.54666584,-73.99212000
16.54922584,-73.99212000
16.55178584,-73.99212000
16.55434584,-73.99212000
16.55690584,-73.99212000
16.55946584,-73.99212000
16.56202584,-73.99212000
16.56458584,-78.46308000
16.56714584,-73.99212000
16.56970584,-73.99212000
16.57226584,-73.99212000
16.57482584,-73.99212000
16.57738584,-73.99212000
16.57994584,-73.99212000
16.58250584,-73.99212000
16.58506584,-73.99212000
16.58762584,-73.99212000
16.59018584,-73.99212000
16.59274584,-73.99212000
16.59530584,-73.99212000
16.59786584,-73.99212000
16.60042584,-73.99212000
16.60298584,-73.99212000
16.60554584,-73.99212000
16.60810584,-73.99212000
16.61066584,-73.99212000
16.61322584,-73.99212000
16.61578584,-73.99212000
16.61834584,-69.50591000
16.62090584,-73.99212000
16.62346584,-73.99212000
16.62602584,-73.99212000
16.62858584,-73.99212000
16.63114584,-73.99212000
16.63370584,-73.99212000
16.63626584,-73.99212000
16.63882584,-73.99212000
16.64138584,-73.99212000
16.64394584,-73.99212000
16.64650584,-73.99212000
16.64906584,-73.99212000
16.65162584,-73.99212000
16.65418584,-73.99212000
16.65674584,-78.46308000
16.65930584,-73.99212000
16.66186584,-73.99212000
16.66442584,-69.50591000
16.66698584,-69.50591000
16.66954584,-73.99212000
16.67210584,-73.99212000
16.67466584,-73.99212000
16.67722584,-73.99212000
16.67978584,-73.99212000
16.68234584,-73.99212000
16.68490584,-73.99212000
16.68746584,-73.99212000
16.69002584,-73.99212000
16.69258584,-78.46308000
16.69514584,-73.99212000
16.69770584,-73.99212000
16.70026584,-78.46308000
16.70282584,-73.99212000
16.70538584,-73.99212000
16.70794584,-73.99212000
16.71050584,-73.99212000
16.71306584,-73.99212000
16.71562584,-73.99212000
16.71818584,-78.46308000
16.72074584,-78.46308000
16.72330584,-73.99212000
16.72586584,-73.99212000
16.72842584,-73.99212000
16.73098584,-73.99212000
16.73354584,-78.46308000
16.73610584,-73.99212000
16.73866584,-73.99212000
16.74122584,-73.99212000
16.74378584,-73.99212000
16.74634584,-73.99212000
16.74890584,-73.99212000
16.75146584,-73.99212000
16.75402584,-78.46308000
16.75658584,-73.99212000
16.75914584,-73.99212000
16.76170584,-73.99212000
16.76426584,-73.99212000
16.76682584,-73.99212000
16.76938584,-73.99212000
16.77194584,-73.99212000
16.77450584,-73.99212000
16.77706584,-73.99212000
16.77962584,-78.46308000
16.78218584,-73.99212000
16.78474584,-78.46308000
16.78730584,-73.99212000
16.78986584,-73.99212000
16.79242584,-73.99212000
16.79498584,-78.46308000
16.79754584,-73.99212000
16.80010584,-78.46308000
16.80266584,-73.99212000
16.80522584,-78.46308000
16.80778584,-78.46308000
16.81034584,-73.99212000
16.81290584,-78.46308000
16.81546584,-78.46308000
16.81802584,-78.46308000
16.82058584,-73.99212000
16.82314584,-78.46308000
16.82570584,-78.46308000
16.82826584,-78.46308000
16.83082584,-78.46308000
16.83338584,-73.99212000
16.83594584,-78.46308000
16.83850584,-78.46308000
16.84106584,-78.46308000
16.84362584,-78.46308000
16.84618584,-78.46308000
16.84874584,-73.99212000
16.85130584,-78.46308000
16.85386584,-78.46308000
16.85642584,-78.46308000
16.85898584,-78.46308000
16.86154584,-78.46308000
16.86410584,-78.46308000
16.86666584,-78.46308000
16.86922584,-78.46308000
16.87178584,-78.46308000
16.87434584,-78.46308000
16.87690584,-78.46308000
16.87946584,-73.99212000
16.88202584,-78.46308000
16.88458584,-78.46308000
16.88714584,-78.46308000
16.88970584,-78.46308000
16.89226584,-78.46308000
16.89482584,-78.46308000
16.89738584,-78.46308000
16.89994584,-78.46308000
16.90250584,-78.46308000
16.90506584,-78.46308000
16.90762584,-78.46308000
16.91018584,-78.46308000
16.91274584,-78.46308000
16.91530584,-78.46308000
16.91786584,-78.46308000
16.92042584,-78.46308000
16.92298584,-78.46308000
16.92554584,-78.46308000
16.92810584,-78.46308000
16.93066584,-78.46308000
16.93322584,-78.46308000
16.93578584,-78.46308000
16.93834584,-73.99212000
16.94090584,-78.46308000
16.94346584,-78.46308000
16.94602584,-78.46308000
16.94858584,-78.46308000
16.95114584,-78.46308000
16.95370584,-78.46308000
16.95626584,-78.46308000
16.95882584,-78.46308000
16.96138584,-78.46308000
16.96394584,-78.46308000
16.96650584,-78.46308000
16.96906584,-78.46308000
16.97162584,-78.46308000
16.97418584,-78.46308000
16.97674584,-78.46308000
16.97930584,-78.46308000
16.98186584,-78.46308000
16.98442584,-78.46308000
16.98698584,-78.46308000
16.98954584,-78.46308000
16.99210584,-78.46308000
16.99466584,-78.46308000
16.99722584,-78.46308000
16.99978584,-78.46308000
17.00234584,-78.46308000
17.00490584,-78.46308000
17.00746584,-78.46308000
17.01002584,-78.46308000
17.01258584,-78.46308000
17.01514584,-78.46308000
17.01770584,-78.46308000
17.02026584,-78.46308000
17.02282584,-78.46308000
17.02538584,-78.46308000
17.02794584,-78.46308000
17.03050584,-78.46308000
17.03306584,-78.46308000
17.03562584,-78.46308000
17.03818584,-78.46308000
17.04074584,-78.46308000
17.04330584,-78.46308000
17.04586584,-73.99212000
17.04842584,-78.46308000
17.05098584,-78.46308000
17.05354584,-78.46308000
17.05610584,-78.46308000
17.05866584,-73.99212000
17.06122584,-78.46308000
17.06378584,-78.46308000
17.06634584,-78.46308000
17.06890584,-78.46308000
17.07146584,-78.46308000
17.07402584,-78.46308000
17.07658584,-73.99212000
17.07914584,-78.46308000
17.08170584,-78.46308000
17.08426584,-78.46308000
17.08682584,-73.99212000
17.08938584,-78.46308000
17.09194584,-78.46308000
17.09450584,-78.46308000
17.09706584,-78.46308000
17.09962584,-78.46308000
17.10218584,-78.46308000
17.10474584,-78.46308000
17.10730584,-78.46308000
17.10986584,-78.46308000
17.11242584,-78.46308000
17.11498584,-78.46308000
17.11754584,-78.46308000
17.12010584,-78.46308000
17.12266584,-78.46308000
17.12522584,-78.46308000
17.12778584,-78.46308000
17.13034584,-78.46308000
17.13290584,-78.46308000
17.13546584,-73.99212000
17.13802584,-78.46308000
17.14058584,-78.46308000
17.14314584,-78.46308000
17.14570584,-78.46308000
17.14826584,-78.46308000
17.15082584,-73.99212000
17.15338584,-78.46308000
17.15594584,-78.46308000
17.15850584,-78.46308000
17.16106584,-78.46308000
17.16362584,-78.46308000
17.16618584,-78.46308000
17.16874584,-78.46308000
17.17130584,-78.46308000
17.17386584,-78.46308000
17.17642584,-78.46308000
17.17898584,-78.46308000
17.18154584,-78.46308000
17.18410584,-78.46308000
17.18666584,-78.46308000
17.18922584,-73.99212000
17.19178584,-78.46308000
17.19434584,-78.46308000
17.19690584,-78.46308000
17.19946584,-78.46308000
17.20202584,-78.46308000
17.20458584,-78.46308000
17.20714584,-78.46308000
17.20970584,-78.46308000
17.21226584,-78.46308000
17.21482584,-78.46308000
17.21738584,-73.99212000
17.21994584,-78.46308000
17.22250584,-73.99212000
17.22506584,-78.46308000
17.22762584,-78.46308000
17.23018584,-78.46308000
17.23274584,-78.46308000
17.23530584,-73.99212000
17.23786584,-78.46308000
17.24042584,-78.46308000
17.24298584,-73.99212000
17.24554584,-73.99212000
17.24810584,-78.46308000
17.25066584,-78.46308000
17.25322584,-78.46308000
17.25578584,-78.46308000
17.25834584,-78.46308000
17.26090584,-78.46308000
17.26346584,-78.46308000
17.26602584,-78.46308000
17.26858584,-73.99212000
17.27114584,-78.46308000
17.27370584,-78.46308000
17.27626584,-78.46308000
17.27882584,-78.46308000
17.28138584,-78.46308000
17.28394584,-78.46308000
17.28650584,-78.46308000
17.28906584,-73.99212000
17.29162584,-78.46308000
17.29418584,-78.46308000
17.29674584,-78.46308000
17.29930584,-78.46308000
17.30186584,-78.46308000
17.30442584,-78.46308000
17.30698584,-78.46308000
17.30954584,-73.99212000
17.31210584,-78.46308000
17.31466584,-78.46308000
17.31722584,-78.46308000
17.31978584,-78.46308000
17.32234584,-78.46308000
17.32490584,-78.46308000
17.32746584,-78.46308000
17.33002584,-78.46308000
17.33258584,-78.46308000
17.33514584,-78.46308000
17.33770584,-78.46308000
17.34026584,-78.46308000
17.34282584,-78.46308000
17.34538584,-78.46308000
17.34794584,-78.46308000
17.35050584,-78.46308000
17.35306584,-78.46308000
17.35562584,-78.46308000
17.35818584,-78.46308000
17.36074584,-78.46308000
17.36330584,-78.46308000
17.36586584,-78.46308000
17.36842584,-78.46308000
17.37098584,-78.46308000
17.37354584,-78.46308000
17.37610584,-78.46308000
17.37866584,-78.46308000
17.38122584,-78.46308000
17.38378584,-78.46308000
17.38634584,-78.46308000
17.38890584,-78.46308000
17.39146584,-78.46308000
17.39402584,-78.46308000
17.39658584,-78.46308000
17.39914584,-78.46308000
17.40170584,-78.46308000
17.40426584,-78.46308000
17.40682584,-78.46308000
17.40938584,-78.46308000
17.41194584,-78.46308000
17.41450584,-78.46308000
17.41706584,-78.46308000
17.41962584,-78.46308000
17.42218584,-78.46308000
17.42474584,-78.46308000
17.42730584,-78.46308000
17.42986584,-78.46308000
17.43242584,-78.46308000
17.43498584,-78.46308000
17.43754584,-78.46308000
17.44010584,-78.46308000
17.44266584,-78.46308000
17.44522584,-78.46308000
17.44778584,-78.46308000
17.45034584,-78.46308000
17.45290584,-78.46308000
17.45546584,-78.46308000
17.45802584,-78.46308000
17.46058584,-78.46308000
17.46314584,-78.46308000
17.46570584,-78.46308000
17.46826584,-78.46308000
17.47082584,-78.46308000
17.47338584,-78.46308000
17.47594584,-78.46308000
17.47850584,-78.46308000
17.48106584,-78.46308000
17.48362584,-78.46308000
17.48618584,-78.46308000
17.48874584,-78.46308000
17.49130584,-78.46308000
17.49386584,-78.46308000
17.49642584,-78.46308000
17.49898584,-78.46308000
17.50154584,-78.46308000
17.50410584,-78.46308000
17.50666584,-78.46308000
17.50922584,-78.46308000
17.51178584,-78.46308000
17.51434584,-78.46308000
17.51690584,-78.46308000
17.51946584,-78.46308000
17.52202584,-78.46308000
17.52458584,-78.46308000
17.52714584,-78.46308000
17.52970584,-78.46308000
17.53226584,-78.46308000
17.53482584,-78.46308000
17.53738584,-78.46308000
17.53994584,-73.99212000
17.54250584,-78.46308000
17.54506584,-78.46308000
17.54762584,-78.46308000
17.55018584,-78.46308000
17.55274584,-78.46308000
17.55530584,-73.99212000
17.55786584,-73.99212000
17.56042584,-78.46308000
17.56298584,-78.46308000
17.56554584,-78.46308000
17.56810584,-78.46308000
17.57066584,-78.46308000
17.57322584,-78.46308000
17.57578584,-78.46308000
17.57834584,-78.46308000
17.58090584,-78.46308000
17.58346584,-78.46308000
17.58602584,-78.46308000
17.58858584,-78.46308000
17.59114584,-73.99212000
17.59370584,-73.99212000
17.59626584,-78.46308000
17.59882584,-78.46308000
17.60138584,-78.46308000
17.60394584,-73.99212000
17.60650584,-73.99212000
17.60906584,-73.99212000
17.61162584,-78.46308000
17.61418584,-78.46308000
17.61674584,-78.46308000
17.61930584,-78.46308000
17.62186584,-73.99212000
17.62442584,-78.46308000
17.62698584,-78.46308000
17.62954584,-78.46308000
17.63210584,-78.46308000
17.63466584,-73.99212000
17.63722584,-73.99212000
17.63978584,-78.46308000
17.64234584,-78.46308000
17.64490584,-78.46308000
17.64746584,-73.99212000
17.65002584,-73.99212000
17.65258584,-78.46308000
17.65514584,-78.46308000
17.65770584,-78.46308000
17.66026584,-73.99212000
17.66282584,-78.46308000
17.66538584,-78.46308000
17.66794584,-78.46308000
17.67050584,-78.46308000
17.67306584,-73.99212000
17.67562584,-78.46308000
17.67818584,-78.46308000
17.68074584,-78.46308000
17.68330584,-73.99212000
17.68586584,-78.46308000
17.68842584,-78.46308000
17.69098584,-78.46308000
17.69354584,-78.46308000
17.69610584,-78.46308000
17.69866584,-78.46308000
17.70122584,-78.46308000
17.70378584,-78.46308000
17.70634584,-78.46308000
17.70890584,-78.46308000
17.71146584,-73.99212000
17.71402584,-78.46308000
17.71658584,-78.46308000
17.71914584,-78.46308000
17.72170584,-78.46308000
17.72426584,-78.46308000
17.72682584,-78.46308000
17.72938584,-78.46308000
17.73194584,-78.46308000
17.73450584,-78.46308000
17.73706584,-78.46308000
17.73962584,-78.46308000
17.74218584,-78.46308000
17.74474584,-78.46308000
17.74730584,-78.46308000
17.74986584,-78.46308000
17.75242584,-78.46308000
17.75498584,-78.46308000
17.75754584,-78.46308000
17.76010584,-78.46308000
17.76266584,-78.46308000
17.76522584,-78.46308000
17.76778584,-78.46308000
17.77034584,-78.46308000
17.77290584,-78.46308000
17.77546584,-78.46308000
17.77802584,-78.46308000
17.78058584,-78.46308000
17.78314584,-78.46308000
17.78570584,-73.99212000
17.78826584,-78.46308000
17.79082584,-78.46308000
17.79338584,-78.46308000
17.79594584,-78.46308000
17.79850584,-78.46308000
17.80106584,-78.46308000
17.80362584,-78.46308000
17.80618584,-78.46308000
17.80874584,-78.46308000
17.81130584,-78.46308000
17.81386584,-78.46308000
17.81642584,-78.46308000
17.81898583,-78.46308000
17.82154583,-78.46308000
17.82410583,-73.99212000
17.82666583,-78.46308000
17.82922583,-78.46308000
17.83178583,-78.46308000
17.83434583,-78.46308000
17.83690583,-78.46308000
17.83946583,-78.46308000
17.84202583,-78.46308000
17.84458583,-78.46308000
17.84714583,-78.46308000
17.84970583,-78.46308000
17.85226583,-78.46308000
17.85482583,-78.46308000
17.85738583,-78.46308000
17.85994583,-78.46308000
17.86250583,-78.46308000
17.86506583,-78.46308000
17.86762583,-78.46308000
17.87018583,-73.99212000
17.87274583,-78.46308000
17.87530583,-78.46308000
17.87786583,-78.46308000
17.88042583,-73.99212000
17.88298583,-73.99212000
17.88554583,-78.46308000
17.88810583,-78.46308000
17.89066583,-78.46308000
17.89322583,-73.99212000
17.89578583,-78.46308000
17.89834583,-73.99212000
17.90090583,-78.46308000
17.90346583,-78.46308000
17.90602583,-73.99212000
17.90858583,-73.99212000
17.91114583,-78.46308000
17.91370583,-73.99212000
17.91626583,-78.46308000
17.91882583,-78.46308000
17.92138583,-78.46308000
17.92394583,-78.46308000
17.92650583,-78.46308000
17.92906583,-78.46308000
17.93162583,-78.46308000
17.93418583,-78.46308000
17.93674583,-73.99212000
17.93930583,-73.99212000
17.94186583,-73.99212000
17.94442583,-78.46308000
17.94698583,-73.99212000
17.94954583,-78.46308000
17.95210583,-78.46308000
17.95466583,-78.46308000
17.95722583,-78.46308000
17.95978583,-78.46308000
17.96234583,-78.46308000
17.96490583,-78.46308000
17.96746583,-78.46308000
17.97002583,-78.46308000
17.97258583,-78.46308000
17.97514583,-78.46308000
17.97770583,-78.46308000
17.98026583,-78.46308000
17.98282583,-78.46308000
17.98538583,-78.46308000
17.98794583,-78.46308000
17.99050583,-73.99212000
17.99306583,-78.46308000
17.99562583,-73.99212000
17.99818583,-78.46308000
18.00074583,-78.46308000
18.00330583,-73.99212000
18.00586583,-78.46308000
18.00842583,-73.99212000
18.01098583,-78.46308000
18.01354583,-78.46308000
18.01610583,-73.99212000
18.01866583,-73.99212000
18.02122583,-78.46308000
18.02378583,-78.46308000
18.02634583,-78.46308000
18.02890583,-78.46308000
18.03146583,-78.46308000
18.03402583,-73.99212000
18.03658583,-78.46308000
18.03914583,-78.46308000
18.04170583,-78.46308000
18.04426583,-73.99212000
18.04682583,-78.46308000
18.04938583,-78.46308000
18.05194583,-73.99212000
18.05450583,-73.99212000
18.05706583,-73.99212000
18.05962583,-73.99212000
18.06218583,-73.99212000
18.06474583,-73.99212000
18.06730583,-78.46308000
18.06986583,-78.46308000
18.07242583,-73.99212000
18.07498583,-73.99212000
18.07754583,-73.99212000
18.08010583,-78.46308000
18.08266583,-73.99212000
18.08522583,-73.99212000
18.08778583,-73.99212000
18.09034583,-73.99212000
18.09290583,-78.46308000
18.09546583,-73.99212000
18.09802583,-73.99212000
18.10058583,-73.99212000
18.10314583,-73.99212000
18.10570583,-78.46308000
18.10826583,-73.99212000
18.11082583,-73.99212000
18.11338583,-73.99212000
18.11594583,-73.99212000
18.11850583,-73.99212000
18.12106583,-73.99212000
18.12362583,-69.50591000
18.12618583,-73.99212000
18.12874583,-73.99212000
18.13130583,-73.99212000
18.13386583,-73.99212000
18.13642583,-73.99212000
18.13898583,-73.99212000
18.14154583,-73.99212000
18.14410583,-73.99212000
18.14666583,-73.99212000
18.14922583,-73.99212000
18.15178583,-73.99212000
18.15434583,-73.99212000
18.15690583,-73.99212000
18.15946583,-73.99212000
18.16202583,-73.99212000
18.16458583,-73.99212000
18.16714583,-73.99212000
18.16970583,-73.99212000
18.17226583,-73.99212000
18.17482583,-73.99212000
18.17738583,-73.99212000
18.17994583,-73.99212000
18.18250583,-73.99212000
18.18506583,-73.99212000
18.18762583,-78.46308000
18.19018583,-73.99212000
18.19274583,-73.99212000
18.19530583,-73.99212000
18.19786583,-73.99212000
18.20042583,-73.99212000
18.20298583,-78.46308000
18.20554583,-73.99212000
18.20810583,-78.46308000
18.21066583,-73.99212000
18.21322583,-73.99212000
18.21578583,-73.99212000
18.21834583,-78.46308000
18.22090583,-73.99212000
18.22346583,-73.99212000
18.22602583,-78.46308000
18.22858583,-73.99212000
18.23114583,-73.99212000
18.23370583,-78.46308000
18.23626583,-78.46308000
18.23882583,-78.46308000
18.24138583,-78.46308000
18.24394583,-78.46308000
18.24650583,-78.46308000
18.24906583,-78.46308000
18.25162583,-78.46308000
18.25418583,-78.46308000
18.25674583,-78.46308000
18.25930583,-78.46308000
18.26186583,-78.46308000
18.26442583,-78.46308000
18.26698583,-78.46308000
18.26954583,-78.46308000
18.27210583,-78.46308000
18.27466583,-78.46308000
18.27722583,-73.99212000
18.27978583,-78.46308000
18.28234583,-78.46308000
18.28490583,-78.46308000
18.28746583,-78.46308000
18.29002583,-78.46308000
18.29258583,-78.46308000
18.29514583,-78.46308000
18.29770583,-78.46308000
18.30026583,-78.46308000
18.30282583,-73.99212000
18.30538583,-78.46308000
18.30794583,-73.99212000
18.31050583,-78.46308000
18.31306583,-78.46308000
18.31562583,-78.46308000
18.31818583,-73.99212000
18.32074583,-78.46308000
18.32330583,-73.99212000
18.32586583,-73.99212000
18.32842583,-73.99212000
18.33098583,-78.46308000
18.33354583,-78.46308000
18.33610583,-78.46308000
18.33866583,-78.46308000
18.34122583,-73.99212000
18.34378583,-78.46308000
18.34634583,-73.99212000
18.34890583,-78.46308000
18.35146583,-78.46308000
18.35402583,-73.99212000
18.35658583,-73.99212000
18.35914583,-73.99212000
18.36170583,-78.46308000
18.36426583,-73.99212000
18.36682583,-73.99212000
18.36938583,-73.99212000
18.37194583,-73.99212000
18.37450583,-73.99212000
18.37706583,-78.46308000
18.37962583,-73.99212000
18.38218583,-73.99212000
18.38474583,-78.46308000
18.38730583,-78.46308000
18.38986583,-78.46308000
18.39242583,-78.46308000
18.39498583,-73.99212000
18.39754583,-73.99212000
18.40010583,-73.99212000
18.40266583,-78.46308000
18.40522583,-73.99212000
18.40778583,-73.99212000
18.41034583,-78.46308000
18.41290583,-73.99212000
18.41546583,-73.99212000
18.41802583,-73.99212000
18.42058583,-73.99212000
18.42314583,-73.99212000
18.42570583,-78.46308000
18.42826583,-78.46308000
18.43082583,-73.99212000
18.43338583,-73.99212000
18.43594583,-73.99212000
18.43850583,-73.99212000
18.44106583,-73.99212000
18.44362583,-73.99212000
18.44618583,-73.99212000
18.44874583,-73.99212000
18.45130583,-78.46308000
18.45386583,-73.99212000
18.45642583,-73.99212000
18.45898583,-78.46308000
18.46154583,-78.46308000
18.46410583,-78.46308000
18.46666583,-73.99212000
18.46922583,-78.46308000
18.47178583,-73.99212000
18.47434583,-73.99212000
18.47690583,-78.46308000
18.47946583,-78.46308000
18.48202583,-73.99212000
18.48458583,-78.46308000
18.48714583,-73.99212000
18.48970583,-73.99212000
18.49226583,-73.99212000
18.49482583,-73.99212000
18.49738583,-78.46308000
18.49994583,-78.46308000
18.50250583,-78.46308000
18.50506583,-73.99212000
18.50762583,-78.46308000
18.51018583,-78.46308000
18.51274583,-78.46308000
18.51530583,-78.46308000
18.51786583,-78.46308000
18.52042583,-78.46308000
18.52298583,-78.46308000
18.52554583,-78.46308000
18.52810583,-78.46308000
18.53066583,-78.46308000
18.53322583,-78.46308000
18.53578583,-78.46308000
18.53834583,-78.46308000
18.54090583,-78.46308000
18.54346583,-78.46308000
18.54602583,-78.46308000
18.54858583,-78.46308000
18.55114583,-78.46308000
18.55370583,-78.46308000
18.55626583,-78.46308000
18.55882583,-78.46308000
18.56138583,-78.46308000
18.56394583,-78.46308000
18.56650583,-78.46308000
18.56906583,-78.46308000
18.57162583,-78.46308000
18.57418583,-78.46308000
18.57674583,-73.99212000
18.57930583,-73.99212000
18.58186583,-73.99212000
18.58442583,-78.46308000
18.58698583,-73.99212000
18.58954583,-78.46308000
18.59210583,-73.99212000
18.59466583,-78.46308000
18.59722583,-78.46308000
18.59978583,-73.99212000
18.60234583,-78.46308000
18.60490583,-78.46308000
18.60746583,-78.46308000
18.61002583,-78.46308000
18.61258583,-73.99212000
18.61514583,-78.46308000
18.61770583,-78.46308000
18.62026583,-78.46308000
18.62282583,-78.46308000
18.62538583,-78.46308000
18.62794583,-78.46308000
18.63050583,-78.46308000
18.63306583,-78.46308000
18.63562583,-78.46308000
18.63818583,-78.46308000
18.64074583,-78.46308000
18.64330583,-78.46308000
18.64586583,-78.46308000
18.64842583,-78.46308000
18.65098583,-78.46308000
18.65354583,-78.46308000
18.65610583,-78.46308000
18.65866583,-78.46308000
18.66122583,-78.46308000
18.66378583,-73.99212000
18.66634583,-78.46308000
18.66890583,-78.46308000
18.67146583,-78.46308000
18.67402583,-78.46308000
18.67658583,-73.99212000
18.67914583,-73.99212000
