Time,Invert B
(ms),(mV)

-1.32205698,-78.46308000
-1.31949698,-78.46308000
-1.31693698,-73.99212000
-1.31437698,-73.99212000
-1.31181698,-78.46308000
-1.30925698,-73.99212000
-1.30669698,-78.46308000
-1.30413698,-73.99212000
-1.30157698,-73.99212000
-1.29901698,-78.46308000
-1.29645698,-73.99212000
-1.29389698,-73.99212000
-1.29133698,-73.99212000
-1.28877698,-73.99212000
-1.28621698,-78.46308000
-1.28365698,-73.99212000
-1.28109698,-73.99212000
-1.27853698,-78.46308000
-1.27597698,-73.99212000
-1.27341698,-78.46308000
-1.27085698,-73.99212000
-1.26829698,-73.99212000
-1.26573698,-73.99212000
-1.26317698,-73.99212000
-1.26061698,-73.99212000
-1.25805698,-73.99212000
-1.25549698,-73.99212000
-1.25293698,-73.99212000
-1.25037698,-73.99212000
-1.24781698,-73.99212000
-1.24525698,-73.99212000
-1.24269698,-73.99212000
-1.24013698,-73.99212000
-1.23757698,-78.46308000
-1.23501698,-73.99212000
-1.23245698,-73.99212000
-1.22989698,-73.99212000
-1.22733698,-73.99212000
-1.22477698,-73.99212000
-1.22221698,-73.99212000
-1.21965698,-73.99212000
-1.21709698,-73.99212000
-1.21453698,-73.99212000
-1.21197698,-73.99212000
-1.20941698,-73.99212000
-1.20685698,-73.99212000
-1.20429698,-78.46308000
-1.20173698,-73.99212000
-1.19917698,-73.99212000
-1.19661698,-69.50591000
-1.19405698,-73.99212000
-1.19149698,-73.99212000
-1.18893698,-73.99212000
-1.18637698,-73.99212000
-1.18381698,-73.99212000
-1.18125698,-73.99212000
-1.17869698,-73.99212000
-1.17613698,-73.99212000
-1.17357698,-73.99212000
-1.17101698,-73.99212000
-1.16845698,-73.99212000
-1.16589698,-73.99212000
-1.16333698,-78.46308000
-1.16077698,-73.99212000
-1.15821698,-73.99212000
-1.15565698,-73.99212000
-1.15309698,-73.99212000
-1.15053698,-73.99212000
-1.14797698,-73.99212000
-1.14541698,-73.99212000
-1.14285698,-73.99212000
-1.14029698,-73.99212000
-1.13773698,-73.99212000
-1.13517698,-73.99212000
-1.13261698,-69.50591000
-1.13005698,-78.46308000
-1.12749698,-73.99212000
-1.12493698,-73.99212000
-1.12237698,-73.99212000
-1.11981698,-73.99212000
-1.11725698,-73.99212000
-1.11469698,-69.50591000
-1.11213698,-73.99212000
-1.10957698,-73.99212000
-1.10701698,-73.99212000
-1.10445698,-73.99212000
-1.10189698,-73.99212000
-1.09933698,-78.46308000
-1.09677698,-73.99212000
-1.09421698,-73.99212000
-1.09165698,-73.99212000
-1.08909698,-73.99212000
-1.08653698,-73.99212000
-1.08397698,-73.99212000
-1.08141698,-73.99212000
-1.07885698,-73.99212000
-1.07629698,-73.99212000
-1.07373698,-73.99212000
-1.07117698,-73.99212000
-1.06861698,-73.99212000
-1.06605698,-73.99212000
-1.06349698,-73.99212000
-1.06093698,-73.99212000
-1.05837698,-73.99212000
-1.05581698,-73.99212000
-1.05325698,-73.99212000
-1.05069698,-73.99212000
-1.04813698,-73.99212000
-1.04557698,-73.99212000
-1.04301698,-73.99212000
-1.04045698,-73.99212000
-1.03789698,-69.50591000
-1.03533698,-73.99212000
-1.03277698,-73.99212000
-1.03021698,-69.50591000
-1.02765698,-69.50591000
-1.02509698,-73.99212000
-1.02253698,-73.99212000
-1.01997698,-73.99212000
-1.01741698,-73.99212000
-1.01485698,-73.99212000
-1.01229698,-73.99212000
-1.00973698,-73.99212000
-1.00717698,-69.50591000
-1.00461698,-73.99212000
-1.00205698,-73.99212000
-0.99949698,-73.99212000
-0.99693698,-73.99212000
-0.99437698,-73.99212000
-0.99181698,-73.99212000
-0.98925698,-69.50591000
-0.98669698,-73.99212000
-0.98413698,-73.99212000
-0.98157698,-73.99212000
-0.97901698,-69.50591000
-0.97645698,-69.50591000
-0.97389698,-73.99212000
-0.97133698,-73.99212000
-0.96877698,-73.99212000
-0.96621698,-73.99212000
-0.96365698,-73.99212000
-0.96109698,-73.99212000
-0.95853698,-73.99212000
-0.95597698,-73.99212000
-0.95341698,-69.50591000
-0.95085698,-73.99212000
-0.94829698,-73.99212000
-0.94573698,-73.99212000
-0.94317698,-69.50591000
-0.94061698,-73.99212000
-0.93805698,-73.99212000
-0.93549698,-69.50591000
-0.93293698,-73.99212000
-0.93037698,-73.99212000
-0.92781698,-69.50591000
-0.92525698,-69.50591000
-0.92269698,-73.99212000
-0.92013698,-73.99212000
-0.91757698,-73.99212000
-0.91501698,-73.99212000
-0.91245698,-69.50591000
-0.90989698,-69.50591000
-0.90733698,-69.50591000
-0.90477698,-73.99212000
-0.90221698,-73.99212000
-0.89965698,-73.99212000
-0.89709698,-73.99212000
-0.89453698,-69.50591000
-0.89197698,-69.50591000
-0.88941698,-69.50591000
-0.88685698,-69.50591000
-0.88429698,-73.99212000
-0.88173698,-69.50591000
-0.87917698,-73.99212000
-0.87661698,-69.50591000
-0.87405698,-69.50591000
-0.87149698,-73.99212000
-0.86893698,-73.99212000
-0.86637698,-73.99212000
-0.86381698,-73.99212000
-0.86125698,-73.99212000
-0.85869698,-73.99212000
-0.85613698,-73.99212000
-0.85357698,-73.99212000
-0.85101698,-73.99212000
-0.84845698,-73.99212000
-0.84589698,-73.99212000
-0.84333698,-73.99212000
-0.84077698,-73.99212000
-0.83821698,-73.99212000
-0.83565698,-73.99212000
-0.83309698,-69.50591000
-0.83053698,-73.99212000
-0.82797698,-73.99212000
-0.82541698,-73.99212000
-0.82285698,-73.99212000
-0.82029698,-69.50591000
-0.81773698,-73.99212000
-0.81517698,-73.99212000
-0.81261698,-82.93404000
-0.81005698,-73.99212000
-0.80749698,-69.50591000
-0.80493698,-96.34693000
-0.80237698,-118.70170000
-0.79981698,-141.07180000
-0.79725698,-150.01370000
-0.79469698,-158.95570000
-0.79213698,-167.89760000
-0.78957698,-176.83950000
-0.78701698,-185.78140000
-0.78445699,-194.73860000
-0.78189699,-199.20960000
-0.77933699,-203.68050000
-0.77677699,-208.15150000
-0.77421699,-212.62240000
-0.77165699,-212.62240000
-0.76909699,-221.56440000
-0.76653699,-226.03530000
-0.76397699,-230.50630000
-0.76141699,-230.50630000
-0.75885699,-234.97720000
-0.75629699,-234.97720000
-0.75373699,-239.44820000
-0.75117699,-239.44820000
-0.74861699,-239.44820000
-0.74605699,-243.91920000
-0.74349699,-243.91920000
-0.74093699,-248.40540000
-0.73837699,-248.40540000
-0.73581699,-248.40540000
-0.73325699,-248.40540000
-0.73069699,-248.40540000
-0.72813699,-248.40540000
-0.72557699,-248.40540000
-0.72301699,-248.40540000
-0.72045699,-243.91920000
-0.71789699,-243.91920000
-0.71533699,-239.44820000
-0.71277699,-239.44820000
-0.71021699,-239.44820000
-0.70765699,-239.44820000
-0.70509699,-234.97720000
-0.70253699,-234.97720000
-0.69997699,-230.50630000
-0.69741699,-230.50630000
-0.69485699,-230.50630000
-0.69229699,-226.03530000
-0.68973699,-226.03530000
-0.68717699,-221.56440000
-0.68461699,-217.09340000
-0.68205699,-217.09340000
-0.67949699,-212.62240000
-0.67693699,-208.15150000
-0.67437699,-208.15150000
-0.67181699,-203.68050000
-0.66925699,-199.20960000
-0.66669699,-194.73860000
-0.66413699,-194.73860000
-0.66157699,-190.26760000
-0.65901699,-185.78140000
-0.65645699,-185.78140000
-0.65389699,-181.31050000
-0.65133699,-176.83950000
-0.64877699,-176.83950000
-0.64621699,-172.36850000
-0.64365699,-167.89760000
-0.64109699,-167.89760000
-0.63853699,-163.42660000
-0.63597699,-158.95570000
-0.63341699,-154.48470000
-0.63085699,-154.48470000
-0.62829699,-150.01370000
-0.62573699,-150.01370000
-0.62317699,-145.54280000
-0.62061699,-141.07180000
-0.61805699,-141.07180000
-0.61549699,-136.60080000
-0.61293699,-132.12990000
-0.61037699,-132.12990000
-0.60781699,-123.17270000
-0.60525699,-123.17270000
-0.60269699,-118.70170000
-0.60013699,-118.70170000
-0.59757699,-114.23080000
-0.59501699,-114.23080000
-0.59245699,-105.28880000
-0.58989699,-105.28880000
-0.58733699,-105.28880000
-0.58477699,-100.81790000
-0.58221699,-100.81790000
-0.57965699,-96.34693000
-0.57709699,-96.34693000
-0.57453699,-91.87596000
-0.57197699,-87.40501000
-0.56941699,-87.40501000
-0.56685699,-82.93404000
-0.56429699,-82.93404000
-0.56173699,-78.46308000
-0.55917699,-78.46308000
-0.55661699,-73.99212000
-0.55405699,-69.50591000
-0.55149699,-69.50591000
-0.54893699,-69.50591000
-0.54637699,-65.03493000
-0.54381699,-65.03493000
-0.54125699,-60.56398000
-0.53869699,-60.56398000
-0.53613699,-56.09302000
-0.53357699,-56.09302000
-0.53101699,-51.62206000
-0.52845699,-51.62206000
-0.52589699,-51.62206000
-0.52333699,-47.15109000
-0.52077699,-47.15109000
-0.51821699,-47.15109000
-0.51565699,-42.68013000
-0.51309699,-42.68013000
-0.51053699,-42.68013000
-0.50797699,-38.20917000
-0.50541699,-38.20917000
-0.50285699,-33.73821000
-0.50029699,-33.73821000
-0.49773699,-33.73821000
-0.49517699,-33.73821000
-0.49261699,-33.73821000
-0.49005699,-29.26725000
-0.48749699,-29.26725000
-0.48493699,-29.26725000
-0.48237699,-24.79629000
-0.47981699,-24.79629000
-0.47725699,-24.79629000
-0.47469699,-24.79629000
-0.47213699,-20.32533000
-0.46957699,-20.32533000
-0.46701699,-20.32533000
-0.46445699,-20.32533000
-0.46189699,-15.85437000
-0.45933699,-15.85437000
-0.45677699,-15.85437000
-0.45421699,-15.85437000
-0.45165699,-15.85437000
-0.44909699,-15.85437000
-0.44653699,-15.85437000
-0.44397699,-15.85437000
-0.44141699,-15.85437000
-0.43885699,-11.38340000
-0.43629699,-11.38340000
-0.43373699,-11.38340000
-0.43117699,-11.38340000
-0.42861699,-11.38340000
-0.42605699,-6.91244200
-0.42349699,-11.38340000
-0.42093699,-6.91244200
-0.41837699,-6.91244200
-0.41581699,-6.91244200
-0.41325699,-6.91244200
-0.41069699,-6.91244200
-0.40813699,-6.91244200
-0.40557699,-6.91244200
-0.40301699,-6.91244200
-0.40045699,-6.91244200
-0.39789699,-6.91244200
-0.39533699,-6.91244200
-0.39277699,-6.91244200
-0.39021699,-6.91244200
-0.38765699,-6.91244200
-0.38509699,-6.91244200
-0.38253699,-6.91244200
-0.37997699,-6.91244200
-0.37741699,-6.91244200
-0.37485699,-6.91244200
-0.37229699,-6.91244200
-0.36973699,-6.91244200
-0.36717699,-6.91244200
-0.36461699,-6.91244200
-0.36205699,-6.91244200
-0.35949699,-6.91244200
-0.35693699,-6.91244200
-0.35437699,-6.91244200
-0.35181699,-6.91244200
-0.34925699,-6.91244200
-0.34669699,-6.91244200
-0.34413699,-6.91244200
-0.34157699,-6.91244200
-0.33901699,-6.91244200
-0.33645699,-6.91244200
-0.33389699,-6.91244200
-0.33133699,-6.91244200
-0.32877699,-6.91244200
-0.32621699,-6.91244200
-0.32365699,-6.91244200
-0.32109699,-6.91244200
-0.31853699,-6.91244200
-0.31597699,-6.91244200
-0.31341699,-6.91244200
-0.31085699,-6.91244200
-0.30829699,-6.91244200
-0.30573699,-6.91244200
-0.30317699,-6.91244200
-0.30061699,-6.91244200
-0.29805699,-6.91244200
-0.29549699,-6.91244200
-0.29293699,-6.91244200
-0.29037699,19.91333000
-0.28781699,95.93493000
-0.28525699,189.85560000
-0.28269699,265.87720000
-0.28013699,319.54400000
-0.27757699,355.32700000
-0.27501699,386.63900000
-0.27245699,413.46470000
-0.26989699,431.34860000
-0.26733699,449.24770000
-0.26477699,467.13150000
-0.26221699,485.01540000
-0.25965699,498.42830000
-0.25709699,Infinity
-0.25453699,Infinity
-0.25197699,Infinity
-0.24941699,Infinity
-0.24685699,Infinity
-0.24429699,Infinity
-0.24173699,Infinity
-0.23917699,Infinity
-0.23661699,Infinity
-0.23405699,Infinity
-0.23149699,Infinity
-0.22893699,Infinity
-0.22637699,Infinity
-0.22381699,Infinity
-0.22125699,Infinity
-0.21869699,Infinity
-0.21613699,Infinity
-0.21357699,Infinity
-0.21101699,Infinity
-0.20845699,Infinity
-0.20589699,Infinity
-0.20333699,Infinity
-0.20077699,Infinity
-0.19821699,Infinity
-0.19565699,Infinity
-0.19309699,Infinity
-0.19053699,Infinity
-0.18797699,Infinity
-0.18541699,Infinity
-0.18285699,Infinity
-0.18029699,Infinity
-0.17773699,Infinity
-0.17517699,Infinity
-0.17261699,Infinity
-0.17005699,Infinity
-0.16749699,Infinity
-0.16493699,Infinity
-0.16237699,Infinity
-0.15981699,Infinity
-0.15725699,Infinity
-0.15469699,Infinity
-0.15213699,493.95730000
-0.14957699,485.01540000
-0.14701699,476.07350000
-0.14445699,471.60250000
-0.14189699,458.18960000
-0.13933699,453.71870000
-0.13677699,440.29050000
-0.13421699,431.34860000
-0.13165699,422.40670000
-0.12909699,413.46470000
-0.12653699,404.52280000
-0.12397699,395.58090000
-0.12141699,386.63900000
-0.11885699,377.68180000
-0.11629699,368.73990000
-0.11373699,355.32700000
-0.11117699,346.38510000
-0.10861699,337.44310000
-0.10605699,328.50120000
-0.10349699,319.54400000
-0.10093699,310.60210000
-0.09837699,297.18920000
-0.09581699,288.24730000
-0.09325699,279.30540000
-0.09069699,270.36350000
-0.08813699,261.40630000
-0.08557699,252.46440000
-0.08301699,243.52240000
-0.08045699,234.58050000
-0.07789699,225.63860000
-0.07533699,212.21040000
-0.07277699,207.73950000
-0.07021699,198.79760000
-0.06765699,189.85560000
-0.06509699,180.91370000
-0.06253699,171.97180000
-0.05997699,163.02990000
-0.05741699,154.07270000
-0.05485699,145.13080000
-0.05229699,136.18880000
-0.04973699,127.24690000
-0.04717699,122.77600000
-0.04461699,113.83400000
-0.04205699,104.89210000
-0.03949699,95.93493000
-0.03693699,91.46397000
-0.03437699,82.52204000
-0.03181699,73.58012000
-0.02925699,64.63820000
-0.02669699,60.16724000
-0.02413699,55.69627000
-0.02157699,42.28339000
-0.01901699,37.79717000
-0.01645699,28.85525000
-0.01389699,24.38429000
-0.01133699,19.91333000
-0.00877699,10.97140000
-0.00621699,6.50044200
-0.00365699,-2.44148100
-0.00109699,-6.91244200
0.00146301,-15.85437000
0.00402301,-20.32533000
0.00658301,-24.79629000
0.00914301,-33.73821000
0.01170301,-33.73821000
0.01426301,-42.68013000
0.01682301,-51.62206000
0.01938301,-56.09302000
0.02194301,-60.56398000
0.02450301,-65.03493000
0.02706301,-69.50591000
0.02962301,-78.46308000
0.03218301,-82.93404000
0.03474301,-87.40501000
0.03730301,-87.40501000
0.03986301,-96.34693000
0.04242301,-100.81790000
0.04498301,-105.28880000
0.04754301,-109.75980000
0.05010301,-114.23080000
0.05266301,-118.70170000
0.05522301,-123.17270000
0.05778301,-123.17270000
0.06034301,-132.12990000
0.06290301,-136.60080000
0.06546301,-141.07180000
0.06802301,-141.07180000
0.07058301,-145.54280000
0.07314301,-150.01370000
0.07570301,-154.48470000
0.07826301,-158.95570000
0.08082301,-158.95570000
0.08338301,-163.42660000
0.08594301,-167.89760000
0.08850301,-167.89760000
0.09106301,-172.36850000
0.09362301,-176.83950000
0.09618301,-176.83950000
0.09874301,-181.31050000
0.10130301,-185.78140000
0.10386301,-185.78140000
0.10642301,-185.78140000
0.10898301,-194.73860000
0.11154301,-194.73860000
0.11410301,-194.73860000
0.11666301,-199.20960000
0.11922301,-203.68050000
0.12178301,-203.68050000
0.12434301,-203.68050000
0.12690301,-208.15150000
0.12946301,-208.15150000
0.13202301,-212.62240000
0.13458301,-212.62240000
0.13714301,-217.09340000
0.13970301,-217.09340000
0.14226301,-221.56440000
0.14482301,-221.56440000
0.14738301,-226.03530000
0.14994301,-226.03530000
0.15250301,-226.03530000
0.15506301,-230.50630000
0.15762301,-230.50630000
0.16018301,-230.50630000
0.16274301,-234.97720000
0.16530301,-230.50630000
0.16786301,-234.97720000
0.17042301,-234.97720000
0.17298301,-239.44820000
0.17554301,-239.44820000
0.17810301,-239.44820000
0.18066301,-239.44820000
0.18322301,-243.91920000
0.18578301,-243.91920000
0.18834301,-248.40540000
0.19090301,-243.91920000
0.19346301,-248.40540000
0.19602301,-248.40540000
0.19858301,-248.40540000
0.20114301,-248.40540000
0.20370301,-248.40540000
0.20626301,-248.40540000
0.20882301,-248.40540000
0.21138301,-252.87640000
0.21394301,-252.87640000
0.21650301,-252.87640000
0.21906301,-252.87640000
0.22162301,-252.87640000
0.22418301,-257.34730000
0.22674301,-257.34730000
0.22930301,-257.34730000
0.23186301,-257.34730000
0.23442301,-257.34730000
0.23698301,-257.34730000
0.23954301,-257.34730000
0.24210301,-257.34730000
0.24466301,-257.34730000
0.24722301,-257.34730000
0.24978301,-257.34730000
0.25234301,-257.34730000
0.25490301,-257.34730000
0.25746301,-257.34730000
0.26002301,-257.34730000
0.26258301,-257.34730000
0.26514301,-257.34730000
0.26770301,-261.81830000
0.27026301,-257.34730000
0.27282301,-257.34730000
0.27538301,-257.34730000
0.27794301,-257.34730000
0.28050301,-257.34730000
0.28306301,-261.81830000
0.28562301,-257.34730000
0.28818301,-257.34730000
0.29074301,-257.34730000
0.29330301,-257.34730000
0.29586301,-257.34730000
0.29842301,-257.34730000
0.30098301,-257.34730000
0.30354301,-257.34730000
0.30610301,-257.34730000
0.30866301,-257.34730000
0.31122301,-257.34730000
0.31378301,-257.34730000
0.31634301,-257.34730000
0.31890301,-257.34730000
0.32146301,-257.34730000
0.32402301,-257.34730000
0.32658301,-257.34730000
0.32914301,-257.34730000
0.33170301,-257.34730000
0.33426301,-257.34730000
0.33682301,-252.87640000
0.33938301,-257.34730000
0.34194301,-252.87640000
0.34450301,-252.87640000
0.34706301,-252.87640000
0.34962301,-252.87640000
0.35218301,-248.40540000
0.35474301,-248.40540000
0.35730301,-248.40540000
0.35986301,-248.40540000
0.36242301,-248.40540000
0.36498301,-248.40540000
0.36754301,-248.40540000
0.37010301,-248.40540000
0.37266301,-248.40540000
0.37522301,-248.40540000
0.37778301,-248.40540000
0.38034301,-243.91920000
0.38290301,-248.40540000
0.38546301,-248.40540000
0.38802301,-243.91920000
0.39058301,-243.91920000
0.39314301,-243.91920000
0.39570301,-243.91920000
0.39826301,-243.91920000
0.40082301,-239.44820000
0.40338301,-239.44820000
0.40594301,-239.44820000
0.40850301,-239.44820000
0.41106301,-239.44820000
0.41362301,-239.44820000
0.41618301,-239.44820000
0.41874301,-239.44820000
0.42130301,-239.44820000
0.42386301,-239.44820000
0.42642301,-239.44820000
0.42898301,-234.97720000
0.43154301,-234.97720000
0.43410301,-234.97720000
0.43666301,-230.50630000
0.43922301,-230.50630000
0.44178301,-230.50630000
0.44434301,-230.50630000
0.44690301,-230.50630000
0.44946301,-230.50630000
0.45202301,-230.50630000
0.45458301,-230.50630000
0.45714301,-230.50630000
0.45970301,-230.50630000
0.46226301,-230.50630000
0.46482301,-230.50630000
0.46738301,-230.50630000
0.46994301,-226.03530000
0.47250301,-226.03530000
0.47506301,-226.03530000
0.47762301,-221.56440000
0.48018301,-221.56440000
0.48274301,-221.56440000
0.48530301,-221.56440000
0.48786301,-221.56440000
0.49042301,-221.56440000
0.49298301,-221.56440000
0.49554301,-221.56440000
0.49810301,-221.56440000
0.50066301,-221.56440000
0.50322301,-217.09340000
0.50578301,-217.09340000
0.50834301,-212.62240000
0.51090301,-212.62240000
0.51346301,-217.09340000
0.51602301,-212.62240000
0.51858301,-212.62240000
0.52114301,-212.62240000
0.52370301,-212.62240000
0.52626301,-212.62240000
0.52882301,-212.62240000
0.53138301,-212.62240000
0.53394301,-212.62240000
0.53650301,-208.15150000
0.53906301,-208.15150000
0.54162301,-208.15150000
0.54418301,-208.15150000
0.54674301,-208.15150000
0.54930301,-203.68050000
0.55186301,-203.68050000
0.55442301,-203.68050000
0.55698301,-203.68050000
0.55954301,-203.68050000
0.56210301,-203.68050000
0.56466301,-203.68050000
0.56722301,-199.20960000
0.56978301,-199.20960000
0.57234301,-199.20960000
0.57490301,-199.20960000
0.57746301,-199.20960000
0.58002301,-199.20960000
0.58258301,-194.73860000
0.58514301,-194.73860000
0.58770301,-194.73860000
0.59026301,-194.73860000
0.59282301,-194.73860000
0.59538301,-194.73860000
0.59794301,-194.73860000
0.60050301,-194.73860000
0.60306301,-194.73860000
0.60562301,-190.26760000
0.60818301,-194.73860000
0.61074301,-190.26760000
0.61330301,-190.26760000
0.61586301,-190.26760000
0.61842301,-190.26760000
0.62098301,-185.78140000
0.62354301,-185.78140000
0.62610301,-185.78140000
0.62866301,-185.78140000
0.63122301,-185.78140000
0.63378301,-185.78140000
0.63634301,-185.78140000
0.63890301,-185.78140000
0.64146301,-181.31050000
0.64402301,-181.31050000
0.64658301,-181.31050000
0.64914301,-181.31050000
0.65170301,-181.31050000
0.65426301,-176.83950000
0.65682301,-176.83950000
0.65938301,-176.83950000
0.66194301,-176.83950000
0.66450301,-176.83950000
0.66706301,-176.83950000
0.66962301,-176.83950000
0.67218301,-176.83950000
0.67474301,-176.83950000
0.67730301,-176.83950000
0.67986301,-176.83950000
0.68242301,-172.36850000
0.68498301,-176.83950000
0.68754301,-172.36850000
0.69010301,-172.36850000
0.69266301,-172.36850000
0.69522301,-172.36850000
0.69778301,-172.36850000
0.70034301,-172.36850000
0.70290301,-167.89760000
0.70546301,-167.89760000
0.70802301,-167.89760000
0.71058301,-167.89760000
0.71314301,-167.89760000
0.71570301,-167.89760000
0.71826301,-167.89760000
0.72082301,-167.89760000
0.72338301,-167.89760000
0.72594301,-163.42660000
0.72850301,-158.95570000
0.73106301,-163.42660000
0.73362301,-158.95570000
0.73618301,-158.95570000
0.73874301,-158.95570000
0.74130301,-158.95570000
0.74386301,-158.95570000
0.74642301,-158.95570000
0.74898301,-158.95570000
0.75154301,-158.95570000
0.75410301,-158.95570000
0.75666301,-158.95570000
0.75922301,-154.48470000
0.76178301,-154.48470000
0.76434301,-154.48470000
0.76690301,-154.48470000
0.76946301,-154.48470000
0.77202301,-154.48470000
0.77458301,-154.48470000
0.77714301,-154.48470000
0.77970301,-150.01370000
0.78226301,-150.01370000
0.78482301,-150.01370000
0.78738301,-150.01370000
0.78994301,-150.01370000
0.79250301,-150.01370000
0.79506301,-150.01370000
0.79762301,-150.01370000
0.80018301,-150.01370000
0.80274301,-150.01370000
0.80530301,-150.01370000
0.80786301,-150.01370000
0.81042301,-150.01370000
0.81298301,-145.54280000
0.81554301,-145.54280000
0.81810301,-141.07180000
0.82066301,-145.54280000
0.82322301,-141.07180000
0.82578301,-141.07180000
0.82834301,-145.54280000
0.83090301,-141.07180000
0.83346301,-141.07180000
0.83602301,-141.07180000
0.83858301,-141.07180000
0.84114301,-141.07180000
0.84370301,-141.07180000
0.84626301,-141.07180000
0.84882301,-141.07180000
0.85138301,-141.07180000
0.85394301,-141.07180000
0.85650301,-136.60080000
0.85906301,-141.07180000
0.86162300,-141.07180000
0.86418300,-141.07180000
0.86674300,-141.07180000
0.86930300,-136.60080000
0.87186300,-136.60080000
0.87442300,-136.60080000
0.87698300,-136.60080000
0.87954300,-136.60080000
0.88210300,-136.60080000
0.88466300,-136.60080000
0.88722300,-136.60080000
0.88978300,-136.60080000
0.89234300,-136.60080000
0.89490300,-132.12990000
0.89746300,-136.60080000
0.90002300,-132.12990000
0.90258300,-132.12990000
0.90514300,-136.60080000
0.90770300,-132.12990000
0.91026300,-136.60080000
0.91282300,-132.12990000
0.91538300,-132.12990000
0.91794300,-132.12990000
0.92050300,-132.12990000
0.92306300,-132.12990000
0.92562300,-132.12990000
0.92818300,-132.12990000
0.93074300,-132.12990000
0.93330300,-132.12990000
0.93586300,-132.12990000
0.93842300,-132.12990000
0.94098300,-132.12990000
0.94354300,-132.12990000
0.94610300,-132.12990000
0.94866300,-132.12990000
0.95122300,-132.12990000
0.95378300,-132.12990000
0.95634300,-123.17270000
0.95890300,-132.12990000
0.96146300,-123.17270000
0.96402300,-123.17270000
0.96658300,-123.17270000
0.96914300,-123.17270000
0.97170300,-123.17270000
0.97426300,-123.17270000
0.97682300,-123.17270000
0.97938300,-123.17270000
0.98194300,-123.17270000
0.98450300,-123.17270000
0.98706300,-123.17270000
0.98962300,-123.17270000
0.99218300,-123.17270000
0.99474300,-123.17270000
0.99730300,-123.17270000
0.99986300,-123.17270000
1.00242300,-123.17270000
1.00498300,-123.17270000
1.00754300,-123.17270000
1.01010300,-123.17270000
1.01266300,-118.70170000
1.01522300,-118.70170000
1.01778300,-118.70170000
1.02034300,-118.70170000
1.02290300,-118.70170000
1.02546300,-118.70170000
1.02802300,-118.70170000
1.03058300,-118.70170000
1.03314300,-118.70170000
1.03570300,-118.70170000
1.03826300,-114.23080000
1.04082300,-118.70170000
1.04338300,-114.23080000
1.04594300,-114.23080000
1.04850300,-114.23080000
1.05106300,-114.23080000
1.05362300,-114.23080000
1.05618300,-114.23080000
1.05874300,-114.23080000
1.06130300,-114.23080000
1.06386300,-114.23080000
1.06642300,-114.23080000
1.06898300,-114.23080000
1.07154300,-114.23080000
1.07410300,-114.23080000
1.07666300,-114.23080000
1.07922300,-114.23080000
1.08178300,-114.23080000
1.08434300,-114.23080000
1.08690300,-109.75980000
1.08946300,-109.75980000
1.09202300,-109.75980000
1.09458300,-109.75980000
1.09714300,-109.75980000
1.09970300,-109.75980000
1.10226300,-105.28880000
1.10482300,-109.75980000
1.10738300,-105.28880000
1.10994300,-105.28880000
1.11250300,-105.28880000
1.11506300,-105.28880000
1.11762300,-105.28880000
1.12018300,-105.28880000
1.12274300,-105.28880000
1.12530300,-105.28880000
1.12786300,-105.28880000
1.13042300,-105.28880000
1.13298300,-105.28880000
1.13554300,-105.28880000
1.13810300,-105.28880000
1.14066300,-105.28880000
1.14322300,-105.28880000
1.14578300,-105.28880000
1.14834300,-105.28880000
1.15090300,-105.28880000
1.15346300,-100.81790000
1.15602300,-105.28880000
1.15858300,-105.28880000
1.16114300,-105.28880000
1.16370300,-100.81790000
1.16626300,-100.81790000
1.16882300,-100.81790000
1.17138300,-100.81790000
1.17394300,-100.81790000
1.17650300,-100.81790000
1.17906300,-100.81790000
1.18162300,-100.81790000
1.18418300,-100.81790000
1.18674300,-100.81790000
1.18930300,-100.81790000
1.19186300,-100.81790000
1.19442300,-100.81790000
1.19698300,-100.81790000
1.19954300,-96.34693000
1.20210300,-96.34693000
1.20466300,-100.81790000
1.20722300,-96.34693000
1.20978300,-100.81790000
1.21234300,-96.34693000
1.21490300,-96.34693000
1.21746300,-96.34693000
1.22002300,-96.34693000
1.22258300,-96.34693000
1.22514300,-96.34693000
1.22770300,-96.34693000
1.23026300,-96.34693000
1.23282300,-96.34693000
1.23538300,-96.34693000
1.23794300,-96.34693000
1.24050300,-96.34693000
1.24306300,-96.34693000
1.24562300,-96.34693000
1.24818300,-96.34693000
1.25074300,-96.34693000
1.25330300,-96.34693000
1.25586300,-96.34693000
1.25842300,-96.34693000
1.26098300,-96.34693000
1.26354300,-96.34693000
1.26610300,-96.34693000
1.26866300,-96.34693000
1.27122300,-96.34693000
1.27378300,-96.34693000
1.27634300,-96.34693000
1.27890300,-96.34693000
1.28146300,-96.34693000
1.28402300,-91.87596000
1.28658300,-91.87596000
1.28914300,-91.87596000
1.29170300,-91.87596000
1.29426300,-91.87596000
1.29682300,-96.34693000
1.29938300,-96.34693000
1.30194300,-91.87596000
1.30450300,-91.87596000
1.30706300,-91.87596000
1.30962300,-91.87596000
1.31218300,-96.34693000
1.31474300,-91.87596000
1.31730300,-91.87596000
1.31986300,-87.40501000
1.32242300,-91.87596000
1.32498300,-91.87596000
1.32754300,-91.87596000
1.33010300,-91.87596000
1.33266300,-91.87596000
1.33522300,-87.40501000
1.33778300,-91.87596000
1.34034300,-87.40501000
1.34290300,-91.87596000
1.34546300,-91.87596000
1.34802300,-87.40501000
1.35058300,-91.87596000
1.35314300,-91.87596000
1.35570300,-91.87596000
1.35826300,-87.40501000
1.36082300,-87.40501000
1.36338300,-87.40501000
1.36594300,-91.87596000
1.36850300,-87.40501000
1.37106300,-87.40501000
1.37362300,-87.40501000
1.37618300,-87.40501000
1.37874300,-91.87596000
1.38130300,-87.40501000
1.38386300,-87.40501000
1.38642300,-87.40501000
1.38898300,-87.40501000
1.39154300,-87.40501000
1.39410300,-87.40501000
1.39666300,-87.40501000
1.39922300,-87.40501000
1.40178300,-87.40501000
1.40434300,-87.40501000
1.40690300,-87.40501000
1.40946300,-87.40501000
1.41202300,-87.40501000
1.41458300,-87.40501000
1.41714300,-87.40501000
1.41970300,-87.40501000
1.42226300,-87.40501000
1.42482300,-87.40501000
1.42738300,-87.40501000
1.42994300,-87.40501000
1.43250300,-87.40501000
1.43506300,-87.40501000
1.43762300,-87.40501000
1.44018300,-87.40501000
1.44274300,-87.40501000
1.44530300,-87.40501000
1.44786300,-87.40501000
1.45042300,-87.40501000
1.45298300,-87.40501000
1.45554300,-87.40501000
1.45810300,-87.40501000
1.46066300,-87.40501000
1.46322300,-87.40501000
1.46578300,-87.40501000
1.46834300,-87.40501000
1.47090300,-87.40501000
1.47346300,-87.40501000
1.47602300,-87.40501000
1.47858300,-87.40501000
1.48114300,-87.40501000
1.48370300,-87.40501000
1.48626300,-87.40501000
1.48882300,-87.40501000
1.49138300,-87.40501000
1.49394300,-87.40501000
1.49650300,-87.40501000
1.49906300,-87.40501000
1.50162300,-87.40501000
1.50418300,-87.40501000
1.50674300,-87.40501000
1.50930300,-87.40501000
1.51186300,-87.40501000
1.51442300,-87.40501000
1.51698300,-87.40501000
1.51954300,-87.40501000
1.52210300,-87.40501000
1.52466300,-87.40501000
1.52722300,-87.40501000
1.52978300,-87.40501000
1.53234300,-87.40501000
1.53490300,-87.40501000
1.53746300,-82.93404000
1.54002300,-82.93404000
1.54258300,-82.93404000
1.54514300,-82.93404000
1.54770300,-82.93404000
1.55026300,-82.93404000
1.55282300,-82.93404000
1.55538300,-87.40501000
1.55794300,-82.93404000
1.56050300,-82.93404000
1.56306300,-82.93404000
1.56562300,-82.93404000
1.56818300,-82.93404000
1.57074300,-82.93404000
1.57330300,-82.93404000
1.57586300,-82.93404000
1.57842300,-82.93404000
1.58098300,-82.93404000
1.58354300,-82.93404000
1.58610300,-82.93404000
1.58866300,-82.93404000
1.59122300,-82.93404000
1.59378300,-82.93404000
1.59634300,-82.93404000
1.59890300,-82.93404000
1.60146300,-82.93404000
1.60402300,-82.93404000
1.60658300,-82.93404000
1.60914300,-82.93404000
1.61170300,-82.93404000
1.61426300,-82.93404000
1.61682300,-82.93404000
1.61938300,-82.93404000
1.62194300,-82.93404000
1.62450300,-82.93404000
1.62706300,-82.93404000
1.62962300,-82.93404000
1.63218300,-78.46308000
1.63474300,-82.93404000
1.63730300,-82.93404000
1.63986300,-78.46308000
1.64242300,-82.93404000
1.64498300,-82.93404000
1.64754300,-82.93404000
1.65010300,-82.93404000
1.65266300,-78.46308000
1.65522300,-78.46308000
1.65778300,-82.93404000
1.66034300,-82.93404000
1.66290300,-78.46308000
1.66546300,-82.93404000
1.66802300,-82.93404000
1.67058300,-82.93404000
1.67314300,-78.46308000
1.67570300,-78.46308000
1.67826300,-78.46308000
1.68082300,-78.46308000
1.68338300,-78.46308000
1.68594300,-78.46308000
1.68850300,-78.46308000
1.69106300,-78.46308000
1.69362300,-78.46308000
1.69618300,-78.46308000
1.69874300,-82.93404000
1.70130300,-78.46308000
1.70386300,-78.46308000
1.70642300,-78.46308000
1.70898300,-78.46308000
1.71154300,-78.46308000
1.71410300,-78.46308000
1.71666300,-78.46308000
1.71922300,-78.46308000
1.72178300,-78.46308000
1.72434300,-78.46308000
1.72690300,-78.46308000
1.72946300,-78.46308000
1.73202300,-78.46308000
1.73458300,-78.46308000
1.73714300,-78.46308000
1.73970300,-78.46308000
1.74226300,-78.46308000
1.74482300,-78.46308000
1.74738300,-78.46308000
1.74994300,-78.46308000
1.75250300,-78.46308000
1.75506300,-78.46308000
1.75762300,-78.46308000
1.76018300,-78.46308000
1.76274300,-78.46308000
1.76530300,-78.46308000
1.76786300,-78.46308000
1.77042300,-78.46308000
1.77298300,-78.46308000
1.77554300,-78.46308000
1.77810300,-78.46308000
1.78066300,-78.46308000
1.78322300,-78.46308000
1.78578300,-78.46308000
1.78834300,-78.46308000
1.79090300,-78.46308000
1.79346300,-78.46308000
1.79602300,-78.46308000
1.79858300,-78.46308000
1.80114300,-78.46308000
1.80370300,-78.46308000
1.80626300,-78.46308000
1.80882300,-78.46308000
1.81138300,-78.46308000
1.81394300,-78.46308000
1.81650300,-78.46308000
1.81906300,-78.46308000
1.82162300,-78.46308000
1.82418300,-78.46308000
1.82674300,-78.46308000
1.82930300,-78.46308000
1.83186300,-78.46308000
1.83442300,-78.46308000
1.83698300,-78.46308000
1.83954300,-78.46308000
1.84210300,-78.46308000
1.84466300,-78.46308000
1.84722300,-78.46308000
1.84978300,-78.46308000
1.85234300,-78.46308000
1.85490300,-78.46308000
1.85746300,-78.46308000
1.86002300,-78.46308000
1.86258300,-73.99212000
1.86514300,-78.46308000
1.86770300,-78.46308000
1.87026300,-78.46308000
1.87282300,-73.99212000
1.87538300,-78.46308000
1.87794300,-78.46308000
1.88050300,-73.99212000
1.88306300,-78.46308000
1.88562300,-78.46308000
1.88818300,-78.46308000
1.89074300,-73.99212000
1.89330300,-78.46308000
1.89586300,-73.99212000
1.89842300,-78.46308000
1.90098300,-78.46308000
1.90354300,-78.46308000
1.90610300,-73.99212000
1.90866300,-78.46308000
1.91122300,-78.46308000
1.91378300,-73.99212000
1.91634300,-78.46308000
1.91890300,-73.99212000
1.92146300,-73.99212000
1.92402300,-73.99212000
1.92658300,-73.99212000
1.92914300,-73.99212000
1.93170300,-78.46308000
1.93426300,-73.99212000
1.93682300,-73.99212000
1.93938300,-73.99212000
1.94194300,-73.99212000
1.94450300,-73.99212000
1.94706300,-73.99212000
1.94962300,-73.99212000
1.95218300,-73.99212000
1.95474300,-73.99212000
1.95730300,-69.50591000
1.95986300,-73.99212000
1.96242300,-73.99212000
1.96498300,-73.99212000
1.96754300,-78.46308000
1.97010300,-78.46308000
1.97266300,-73.99212000
1.97522300,-73.99212000
1.97778300,-73.99212000
1.98034300,-73.99212000
1.98290300,-73.99212000
1.98546300,-73.99212000
1.98802300,-69.50591000
1.99058300,-73.99212000
1.99314300,-73.99212000
1.99570300,-78.46308000
1.99826300,-69.50591000
2.00082300,-69.50591000
2.00338300,-73.99212000
2.00594300,-73.99212000
2.00850300,-78.46308000
2.01106300,-73.99212000
2.01362300,-73.99212000
2.01618300,-73.99212000
2.01874300,-69.50591000
2.02130300,-69.50591000
2.02386300,-73.99212000
2.02642300,-73.99212000
2.02898300,-73.99212000
2.03154300,-73.99212000
2.03410300,-73.99212000
2.03666300,-69.50591000
2.03922300,-73.99212000
2.04178300,-73.99212000
2.04434300,-73.99212000
2.04690300,-73.99212000
2.04946300,-73.99212000
2.05202300,-73.99212000
2.05458300,-73.99212000
2.05714300,-73.99212000
2.05970300,-73.99212000
2.06226300,-73.99212000
2.06482300,-73.99212000
2.06738300,-73.99212000
2.06994300,-73.99212000
2.07250300,-69.50591000
2.07506300,-73.99212000
2.07762300,-73.99212000
2.08018300,-73.99212000
2.08274300,-73.99212000
2.08530300,-73.99212000
2.08786300,-73.99212000
2.09042300,-69.50591000
2.09298300,-73.99212000
2.09554300,-73.99212000
2.09810300,-73.99212000
2.10066300,-73.99212000
2.10322300,-73.99212000
2.10578300,-73.99212000
2.10834300,-73.99212000
2.11090300,-73.99212000
2.11346300,-73.99212000
2.11602300,-73.99212000
2.11858300,-73.99212000
2.12114300,-78.46308000
2.12370300,-73.99212000
2.12626300,-78.46308000
2.12882300,-73.99212000
2.13138300,-73.99212000
2.13394300,-78.46308000
2.13650300,-73.99212000
2.13906300,-78.46308000
2.14162300,-78.46308000
2.14418300,-78.46308000
2.14674300,-78.46308000
2.14930300,-78.46308000
2.15186300,-78.46308000
2.15442300,-78.46308000
2.15698300,-78.46308000
2.15954300,-78.46308000
2.16210300,-78.46308000
2.16466300,-78.46308000
2.16722300,-78.46308000
2.16978300,-78.46308000
2.17234300,-78.46308000
2.17490300,-78.46308000
2.17746300,-78.46308000
2.18002300,-78.46308000
2.18258300,-78.46308000
2.18514300,-82.93404000
2.18770300,-78.46308000
2.19026300,-82.93404000
2.19282300,-82.93404000
2.19538300,-82.93404000
2.19794300,-82.93404000
2.20050300,-82.93404000
2.20306300,-82.93404000
2.20562300,-82.93404000
2.20818300,-82.93404000
2.21074300,-82.93404000
2.21330300,-82.93404000
2.21586300,-82.93404000
2.21842300,-82.93404000
2.22098300,-87.40501000
2.22354300,-87.40501000
2.22610300,-87.40501000
2.22866300,-87.40501000
2.23122300,-87.40501000
2.23378300,-87.40501000
2.23634300,-87.40501000
2.23890300,-87.40501000
2.24146300,-87.40501000
2.24402300,-87.40501000
2.24658300,-91.87596000
2.24914300,-87.40501000
2.25170300,-91.87596000
2.25426300,-91.87596000
2.25682300,-91.87596000
2.25938300,-96.34693000
2.26194300,-96.34693000
2.26450300,-96.34693000
2.26706300,-96.34693000
2.26962300,-96.34693000
2.27218300,-96.34693000
2.27474300,-96.34693000
2.27730300,-96.34693000
2.27986300,-96.34693000
2.28242300,-96.34693000
2.28498300,-100.81790000
2.28754300,-96.34693000
2.29010300,-100.81790000
2.29266300,-100.81790000
2.29522300,-100.81790000
2.29778300,-100.81790000
2.30034300,-100.81790000
2.30290300,-105.28880000
2.30546300,-105.28880000
2.30802300,-100.81790000
2.31058300,-105.28880000
2.31314300,-105.28880000
2.31570300,-105.28880000
2.31826300,-105.28880000
2.32082300,-105.28880000
2.32338300,-105.28880000
2.32594300,-105.28880000
2.32850300,-105.28880000
2.33106300,-105.28880000
2.33362300,-105.28880000
2.33618300,-105.28880000
2.33874300,-109.75980000
2.34130300,-105.28880000
2.34386300,-105.28880000
2.34642300,-109.75980000
2.34898300,-109.75980000
2.35154300,-114.23080000
2.35410300,-109.75980000
2.35666300,-114.23080000
2.35922300,-109.75980000
2.36178300,-114.23080000
2.36434300,-114.23080000
2.36690300,-114.23080000
2.36946300,-114.23080000
2.37202300,-114.23080000
2.37458300,-114.23080000
2.37714300,-114.23080000
2.37970300,-114.23080000
2.38226300,-114.23080000
2.38482300,-114.23080000
2.38738300,-114.23080000
2.38994300,-114.23080000
2.39250300,-114.23080000
2.39506300,-114.23080000
2.39762300,-114.23080000
2.40018300,-114.23080000
2.40274300,-114.23080000
2.40530300,-118.70170000
2.40786300,-114.23080000
2.41042300,-118.70170000
2.41298300,-114.23080000
2.41554300,-114.23080000
2.41810300,-118.70170000
2.42066300,-118.70170000
2.42322300,-118.70170000
2.42578300,-118.70170000
2.42834300,-118.70170000
2.43090300,-118.70170000
2.43346300,-118.70170000
2.43602300,-118.70170000
2.43858300,-118.70170000
2.44114300,-118.70170000
2.44370300,-118.70170000
2.44626300,-118.70170000
2.44882300,-118.70170000
2.45138300,-118.70170000
2.45394300,-118.70170000
2.45650300,-118.70170000
2.45906300,-118.70170000
2.46162300,-118.70170000
2.46418300,-118.70170000
2.46674300,-118.70170000
2.46930300,-118.70170000
2.47186300,-118.70170000
2.47442300,-118.70170000
2.47698300,-118.70170000
2.47954300,-118.70170000
2.48210300,-118.70170000
2.48466300,-118.70170000
2.48722300,-118.70170000
2.48978300,-118.70170000
2.49234300,-118.70170000
2.49490300,-118.70170000
2.49746300,-118.70170000
2.50002300,-118.70170000
2.50258300,-118.70170000
2.50514300,-118.70170000
2.50770299,-114.23080000
2.51026299,-118.70170000
2.51282299,-118.70170000
2.51538299,-118.70170000
2.51794299,-118.70170000
2.52050299,-118.70170000
2.52306299,-114.23080000
2.52562299,-118.70170000
2.52818299,-118.70170000
2.53074299,-118.70170000
2.53330299,-114.23080000
2.53586299,-114.23080000
2.53842299,-114.23080000
2.54098299,-118.70170000
2.54354299,-114.23080000
2.54610299,-114.23080000
2.54866299,-114.23080000
2.55122299,-114.23080000
2.55378299,-114.23080000
2.55634299,-114.23080000
2.55890299,-114.23080000
2.56146299,-114.23080000
2.56402299,-114.23080000
2.56658299,-114.23080000
2.56914299,-114.23080000
2.57170299,-114.23080000
2.57426299,-114.23080000
2.57682299,-114.23080000
2.57938299,-114.23080000
2.58194299,-114.23080000
2.58450299,-114.23080000
2.58706299,-114.23080000
2.58962299,-114.23080000
2.59218299,-109.75980000
2.59474299,-109.75980000
2.59730299,-109.75980000
2.59986299,-109.75980000
2.60242299,-105.28880000
2.60498299,-105.28880000
2.60754299,-109.75980000
2.61010299,-109.75980000
2.61266299,-109.75980000
2.61522299,-105.28880000
2.61778299,-105.28880000
2.62034299,-109.75980000
2.62290299,-105.28880000
2.62546299,-105.28880000
2.62802299,-105.28880000
2.63058299,-105.28880000
2.63314299,-105.28880000
2.63570299,-105.28880000
2.63826299,-105.28880000
2.64082299,-105.28880000
2.64338299,-105.28880000
2.64594299,-105.28880000
2.64850299,-105.28880000
2.65106299,-100.81790000
2.65362299,-100.81790000
2.65618299,-105.28880000
2.65874299,-100.81790000
2.66130299,-100.81790000
2.66386299,-100.81790000
2.66642299,-100.81790000
2.66898299,-100.81790000
2.67154299,-100.81790000
2.67410299,-100.81790000
2.67666299,-96.34693000
2.67922299,-100.81790000
2.68178299,-96.34693000
2.68434299,-96.34693000
2.68690299,-96.34693000
2.68946299,-96.34693000
2.69202299,-96.34693000
2.69458299,-96.34693000
2.69714299,-96.34693000
2.69970299,-96.34693000
2.70226299,-96.34693000
2.70482299,-91.87596000
2.70738299,-91.87596000
2.70994299,-91.87596000
2.71250299,-87.40501000
2.71506299,-87.40501000
2.71762299,-87.40501000
2.72018299,-87.40501000
2.72274299,-87.40501000
2.72530299,-87.40501000
2.72786299,-87.40501000
2.73042299,-87.40501000
2.73298299,-87.40501000
2.73554299,-87.40501000
2.73810299,-82.93404000
2.74066299,-82.93404000
2.74322299,-82.93404000
2.74578299,-82.93404000
2.74834299,-82.93404000
2.75090299,-78.46308000
2.75346299,-78.46308000
2.75602299,-78.46308000
2.75858299,-78.46308000
2.76114299,-78.46308000
2.76370299,-73.99212000
2.76626299,-78.46308000
2.76882299,-73.99212000
2.77138299,-73.99212000
2.77394299,-69.50591000
2.77650299,-69.50591000
2.77906299,-69.50591000
2.78162299,-69.50591000
2.78418299,-69.50591000
2.78674299,-69.50591000
2.78930299,-69.50591000
2.79186299,-65.03493000
2.79442299,-65.03493000
2.79698299,-65.03493000
2.79954299,-60.56398000
2.80210299,-65.03493000
2.80466299,-60.56398000
2.80722299,-60.56398000
2.80978299,-60.56398000
2.81234299,-60.56398000
2.81490299,-60.56398000
2.81746299,-56.09302000
2.82002299,-60.56398000
2.82258299,-56.09302000
2.82514299,-56.09302000
2.82770299,-51.62206000
2.83026299,-51.62206000
2.83282299,-51.62206000
2.83538299,-51.62206000
2.83794299,-51.62206000
2.84050299,-51.62206000
2.84306299,-51.62206000
2.84562299,-51.62206000
2.84818299,-51.62206000
2.85074299,-47.15109000
2.85330299,-47.15109000
2.85586299,-47.15109000
2.85842299,-47.15109000
2.86098299,-42.68013000
2.86354299,-42.68013000
2.86610299,-42.68013000
2.86866299,-42.68013000
2.87122299,-42.68013000
2.87378299,-42.68013000
2.87634299,-42.68013000
2.87890299,-42.68013000
2.88146299,-38.20917000
2.88402299,-38.20917000
2.88658299,-38.20917000
2.88914299,-38.20917000
2.89170299,-38.20917000
2.89426299,-38.20917000
2.89682299,-33.73821000
2.89938299,-33.73821000
2.90194299,-33.73821000
2.90450299,-33.73821000
2.90706299,-33.73821000
2.90962299,-33.73821000
2.91218299,-33.73821000
2.91474299,-33.73821000
2.91730299,-33.73821000
2.91986299,-33.73821000
2.92242299,-33.73821000
2.92498299,-33.73821000
2.92754299,-29.26725000
2.93010299,-29.26725000
2.93266299,-29.26725000
2.93522299,-33.73821000
2.93778299,-33.73821000
2.94034299,-29.26725000
2.94290299,-29.26725000
2.94546299,-29.26725000
2.94802299,-29.26725000
2.95058299,-29.26725000
2.95314299,-29.26725000
2.95570299,-24.79629000
2.95826299,-24.79629000
2.96082299,-29.26725000
2.96338299,-24.79629000
2.96594299,-24.79629000
2.96850299,-24.79629000
2.97106299,-24.79629000
2.97362299,-24.79629000
2.97618299,-24.79629000
2.97874299,-24.79629000
2.98130299,-24.79629000
2.98386299,-24.79629000
2.98642299,-24.79629000
2.98898299,-24.79629000
2.99154299,-24.79629000
2.99410299,-24.79629000
2.99666299,-24.79629000
2.99922299,-24.79629000
3.00178299,-24.79629000
3.00434299,-24.79629000
3.00690299,-24.79629000
3.00946299,-24.79629000
3.01202299,-24.79629000
3.01458299,-24.79629000
3.01714299,-24.79629000
3.01970299,-24.79629000
3.02226299,-24.79629000
3.02482299,-24.79629000
3.02738299,-24.79629000
3.02994299,-24.79629000
3.03250299,-24.79629000
3.03506299,-24.79629000
3.03762299,-24.79629000
3.04018299,-24.79629000
3.04274299,-24.79629000
3.04530299,-24.79629000
3.04786299,-24.79629000
3.05042299,-24.79629000
3.05298299,-24.79629000
3.05554299,-24.79629000
3.05810299,-24.79629000
3.06066299,-24.79629000
3.06322299,-24.79629000
3.06578299,-24.79629000
3.06834299,-24.79629000
3.07090299,-24.79629000
3.07346299,-24.79629000
3.07602299,-24.79629000
3.07858299,-24.79629000
3.08114299,-24.79629000
3.08370299,-24.79629000
3.08626299,-24.79629000
3.08882299,-24.79629000
3.09138299,-24.79629000
3.09394299,-24.79629000
3.09650299,-24.79629000
3.09906299,-24.79629000
3.10162299,-24.79629000
3.10418299,-24.79629000
3.10674299,-24.79629000
3.10930299,-24.79629000
3.11186299,-24.79629000
3.11442299,-24.79629000
3.11698299,-29.26725000
3.11954299,-24.79629000
3.12210299,-24.79629000
3.12466299,-24.79629000
3.12722299,-24.79629000
3.12978299,-24.79629000
3.13234299,-29.26725000
3.13490299,-24.79629000
3.13746299,-29.26725000
3.14002299,-29.26725000
3.14258299,-29.26725000
3.14514299,-29.26725000
3.14770299,-29.26725000
3.15026299,-29.26725000
3.15282299,-29.26725000
3.15538299,-29.26725000
3.15794299,-29.26725000
3.16050299,-29.26725000
3.16306299,-33.73821000
3.16562299,-29.26725000
3.16818299,-29.26725000
3.17074299,-29.26725000
3.17330299,-33.73821000
3.17586299,-33.73821000
3.17842299,-29.26725000
3.18098299,-33.73821000
3.18354299,-33.73821000
3.18610299,-33.73821000
3.18866299,-33.73821000
3.19122299,-33.73821000
3.19378299,-33.73821000
3.19634299,-33.73821000
3.19890299,-33.73821000
3.20146299,-33.73821000
3.20402299,-33.73821000
3.20658299,-33.73821000
3.20914299,-33.73821000
3.21170299,-33.73821000
3.21426299,-33.73821000
3.21682299,-33.73821000
3.21938299,-33.73821000
3.22194299,-33.73821000
3.22450299,-33.73821000
3.22706299,-38.20917000
3.22962299,-38.20917000
3.23218299,-38.20917000
3.23474299,-38.20917000
3.23730299,-38.20917000
3.23986299,-38.20917000
3.24242299,-33.73821000
3.24498299,-38.20917000
3.24754299,-38.20917000
3.25010299,-38.20917000
3.25266299,-42.68013000
3.25522299,-42.68013000
3.25778299,-42.68013000
3.26034299,-42.68013000
3.26290299,-42.68013000
3.26546299,-42.68013000
3.26802299,-42.68013000
3.27058299,-42.68013000
3.27314299,-42.68013000
3.27570299,-42.68013000
3.27826299,-42.68013000
3.28082299,-42.68013000
3.28338299,-42.68013000
3.28594299,-42.68013000
3.28850299,-42.68013000
3.29106299,-42.68013000
3.29362299,-42.68013000
3.29618299,-47.15109000
3.29874299,-42.68013000
3.30130299,-42.68013000
3.30386299,-42.68013000
3.30642299,-42.68013000
3.30898299,-47.15109000
3.31154299,-47.15109000
3.31410299,-47.15109000
3.31666299,-51.62206000
3.31922299,-51.62206000
3.32178299,-51.62206000
3.32434299,-51.62206000
3.32690299,-51.62206000
3.32946299,-51.62206000
3.33202299,-51.62206000
3.33458299,-51.62206000
3.33714299,-51.62206000
3.33970299,-51.62206000
3.34226299,-51.62206000
3.34482299,-51.62206000
3.34738299,-51.62206000
3.34994299,-51.62206000
3.35250299,-51.62206000
3.35506299,-51.62206000
3.35762299,-51.62206000
3.36018299,-51.62206000
3.36274299,-51.62206000
3.36530299,-51.62206000
3.36786299,-56.09302000
3.37042299,-51.62206000
3.37298299,-51.62206000
3.37554299,-51.62206000
3.37810299,-56.09302000
3.38066299,-56.09302000
3.38322299,-56.09302000
3.38578299,-60.56398000
3.38834299,-56.09302000
3.39090299,-56.09302000
3.39346299,-60.56398000
3.39602299,-60.56398000
3.39858299,-60.56398000
3.40114299,-60.56398000
3.40370299,-60.56398000
3.40626299,-60.56398000
3.40882299,-60.56398000
3.41138299,-60.56398000
3.41394299,-60.56398000
3.41650299,-60.56398000
3.41906299,-60.56398000
3.42162299,-60.56398000
3.42418299,-60.56398000
3.42674299,-60.56398000
3.42930299,-60.56398000
3.43186299,-60.56398000
3.43442299,-65.03493000
3.43698299,-60.56398000
3.43954299,-60.56398000
3.44210299,-60.56398000
3.44466299,-65.03493000
3.44722299,-65.03493000
3.44978299,-65.03493000
3.45234299,-65.03493000
3.45490299,-65.03493000
3.45746299,-65.03493000
3.46002299,-65.03493000
3.46258299,-69.50591000
3.46514299,-65.03493000
3.46770299,-65.03493000
3.47026299,-69.50591000
3.47282299,-69.50591000
3.47538299,-65.03493000
3.47794299,-65.03493000
3.48050299,-69.50591000
3.48306299,-69.50591000
3.48562299,-69.50591000
3.48818299,-69.50591000
3.49074299,-69.50591000
3.49330299,-69.50591000
3.49586299,-69.50591000
3.49842299,-69.50591000
3.50098299,-69.50591000
3.50354299,-69.50591000
3.50610299,-69.50591000
3.50866299,-69.50591000
3.51122299,-69.50591000
3.51378299,-69.50591000
3.51634299,-69.50591000
3.51890299,-69.50591000
3.52146299,-69.50591000
3.52402299,-69.50591000
3.52658299,-69.50591000
3.52914299,-69.50591000
3.53170299,-69.50591000
3.53426299,-69.50591000
3.53682299,-69.50591000
3.53938299,-69.50591000
3.54194299,-69.50591000
3.54450299,-69.50591000
3.54706299,-69.50591000
3.54962299,-69.50591000
3.55218299,-69.50591000
3.55474299,-69.50591000
3.55730299,-69.50591000
3.55986299,-69.50591000
3.56242299,-69.50591000
3.56498299,-73.99212000
3.56754299,-69.50591000
3.57010299,-73.99212000
3.57266299,-69.50591000
3.57522299,-69.50591000
3.57778299,-69.50591000
3.58034299,-69.50591000
3.58290299,-73.99212000
3.58546299,-69.50591000
3.58802299,-69.50591000
3.59058299,-69.50591000
3.59314299,-69.50591000
3.59570299,-73.99212000
3.59826299,-69.50591000
3.60082299,-69.50591000
3.60338299,-73.99212000
3.60594299,-73.99212000
3.60850299,-69.50591000
3.61106299,-73.99212000
3.61362299,-73.99212000
3.61618299,-69.50591000
3.61874299,-73.99212000
3.62130299,-73.99212000
3.62386299,-73.99212000
3.62642299,-73.99212000
3.62898299,-78.46308000
3.63154299,-73.99212000
3.63410299,-73.99212000
3.63666299,-73.99212000
3.63922299,-73.99212000
3.64178299,-78.46308000
3.64434299,-73.99212000
3.64690299,-73.99212000
3.64946299,-73.99212000
3.65202299,-73.99212000
3.65458299,-73.99212000
3.65714299,-73.99212000
3.65970299,-73.99212000
3.66226299,-73.99212000
3.66482299,-73.99212000
3.66738299,-73.99212000
3.66994299,-73.99212000
3.67250299,-73.99212000
3.67506299,-73.99212000
3.67762299,-73.99212000
3.68018299,-78.46308000
3.68274299,-73.99212000
3.68530299,-78.46308000
3.68786299,-78.46308000
3.69042299,-78.46308000
3.69298299,-73.99212000
3.69554299,-78.46308000
3.69810299,-73.99212000
3.70066299,-73.99212000
3.70322299,-73.99212000
3.70578299,-73.99212000
3.70834299,-78.46308000
3.71090299,-78.46308000
3.71346299,-78.46308000
3.71602299,-73.99212000
3.71858299,-73.99212000
3.72114299,-78.46308000
3.72370299,-78.46308000
3.72626299,-73.99212000
3.72882299,-78.46308000
3.73138299,-73.99212000
3.73394299,-73.99212000
3.73650299,-78.46308000
3.73906299,-73.99212000
3.74162299,-78.46308000
3.74418299,-78.46308000
3.74674299,-78.46308000
3.74930299,-73.99212000
3.75186299,-73.99212000
3.75442299,-73.99212000
3.75698299,-73.99212000
3.75954299,-73.99212000
3.76210299,-73.99212000
3.76466299,-78.46308000
3.76722299,-73.99212000
3.76978299,-78.46308000
3.77234299,-78.46308000
3.77490299,-78.46308000
3.77746299,-78.46308000
3.78002299,-73.99212000
3.78258299,-78.46308000
3.78514299,-73.99212000
3.78770299,-73.99212000
3.79026299,-73.99212000
3.79282299,-73.99212000
3.79538299,-78.46308000
3.79794299,-78.46308000
3.80050299,-73.99212000
3.80306299,-73.99212000
3.80562299,-78.46308000
3.80818299,-73.99212000
3.81074299,-73.99212000
3.81330299,-73.99212000
3.81586299,-73.99212000
3.81842299,-73.99212000
3.82098299,-78.46308000
3.82354299,-73.99212000
3.82610299,-69.50591000
3.82866299,-78.46308000
3.83122299,-73.99212000
3.83378299,-73.99212000
3.83634299,-73.99212000
3.83890299,-73.99212000
3.84146299,-78.46308000
3.84402299,-73.99212000
3.84658299,-73.99212000
3.84914299,-73.99212000
3.85170299,-73.99212000
3.85426299,-73.99212000
3.85682299,-73.99212000
3.85938299,-73.99212000
3.86194299,-73.99212000
3.86450299,-73.99212000
3.86706299,-73.99212000
3.86962299,-73.99212000
3.87218299,-73.99212000
3.87474299,-73.99212000
3.87730299,-73.99212000
3.87986299,-73.99212000
3.88242299,-73.99212000
3.88498299,-73.99212000
3.88754299,-78.46308000
3.89010299,-73.99212000
3.89266299,-73.99212000
3.89522299,-69.50591000
3.89778299,-73.99212000
3.90034299,-73.99212000
3.90290299,-73.99212000
3.90546299,-73.99212000
3.90802299,-69.50591000
3.91058299,-69.50591000
3.91314299,-73.99212000
3.91570299,-73.99212000
3.91826299,-73.99212000
3.92082299,-73.99212000
3.92338299,-73.99212000
3.92594299,-78.46308000
3.92850299,-73.99212000
3.93106299,-73.99212000
3.93362299,-73.99212000
3.93618299,-73.99212000
3.93874299,-73.99212000
3.94130299,-73.99212000
3.94386299,-69.50591000
3.94642299,-73.99212000
3.94898299,-73.99212000
3.95154299,-73.99212000
3.95410299,-73.99212000
3.95666299,-73.99212000
3.95922299,-73.99212000
3.96178299,-73.99212000
3.96434299,-73.99212000
3.96690299,-73.99212000
3.96946299,-73.99212000
3.97202299,-73.99212000
3.97458299,-69.50591000
3.97714299,-73.99212000
3.97970299,-73.99212000
3.98226299,-73.99212000
3.98482299,-73.99212000
3.98738299,-73.99212000
3.98994299,-73.99212000
3.99250299,-69.50591000
3.99506299,-73.99212000
3.99762299,-69.50591000
4.00018299,-73.99212000
4.00274299,-69.50591000
4.00530299,-69.50591000
4.00786299,-69.50591000
4.01042299,-73.99212000
4.01298299,-69.50591000
4.01554299,-69.50591000
4.01810299,-73.99212000
4.02066299,-69.50591000
4.02322299,-69.50591000
4.02578299,-69.50591000
4.02834299,-73.99212000
4.03090299,-69.50591000
4.03346299,-69.50591000
4.03602299,-73.99212000
4.03858299,-69.50591000
4.04114299,-69.50591000
4.04370299,-69.50591000
4.04626299,-69.50591000
4.04882299,-69.50591000
4.05138299,-69.50591000
4.05394299,-69.50591000
4.05650299,-69.50591000
4.05906299,-69.50591000
4.06162299,-69.50591000
4.06418299,-73.99212000
4.06674299,-69.50591000
4.06930299,-73.99212000
4.07186299,-69.50591000
4.07442299,-69.50591000
4.07698299,-69.50591000
4.07954299,-69.50591000
4.08210299,-69.50591000
4.08466299,-69.50591000
4.08722299,-69.50591000
4.08978299,-69.50591000
4.09234299,-69.50591000
4.09490299,-69.50591000
4.09746299,-69.50591000
4.10002299,-69.50591000
4.10258299,-69.50591000
4.10514299,-69.50591000
4.10770299,-69.50591000
4.11026299,-69.50591000
4.11282299,-69.50591000
4.11538299,-69.50591000
4.11794299,-69.50591000
4.12050299,-69.50591000
4.12306299,-69.50591000
4.12562299,-69.50591000
4.12818299,-69.50591000
4.13074299,-69.50591000
4.13330299,-69.50591000
4.13586299,-69.50591000
4.13842299,-69.50591000
4.14098299,-69.50591000
4.14354299,-69.50591000
4.14610299,-69.50591000
4.14866299,-69.50591000
4.15122299,-69.50591000
4.15378298,-69.50591000
4.15634298,-69.50591000
4.15890298,-69.50591000
4.16146298,-69.50591000
4.16402298,-69.50591000
4.16658298,-69.50591000
4.16914298,-69.50591000
4.17170298,-69.50591000
4.17426298,-69.50591000
4.17682298,-69.50591000
4.17938298,-69.50591000
4.18194298,-69.50591000
4.18450298,-69.50591000
4.18706298,-69.50591000
4.18962298,-69.50591000
4.19218298,-69.50591000
4.19474298,-69.50591000
4.19730298,-69.50591000
4.19986298,-69.50591000
4.20242298,-69.50591000
4.20498298,-69.50591000
4.20754298,-69.50591000
4.21010298,-69.50591000
4.21266298,-69.50591000
4.21522298,-69.50591000
4.21778298,-69.50591000
4.22034298,-69.50591000
4.22290298,-69.50591000
4.22546298,-69.50591000
4.22802298,-69.50591000
4.23058298,-69.50591000
4.23314298,-69.50591000
4.23570298,-69.50591000
4.23826298,-69.50591000
4.24082298,-69.50591000
4.24338298,-69.50591000
4.24594298,-69.50591000
4.24850298,-69.50591000
4.25106298,-69.50591000
4.25362298,-69.50591000
4.25618298,-69.50591000
4.25874298,-69.50591000
4.26130298,-69.50591000
4.26386298,-69.50591000
4.26642298,-69.50591000
4.26898298,-69.50591000
4.27154298,-69.50591000
4.27410298,-69.50591000
4.27666298,-69.50591000
4.27922298,-69.50591000
4.28178298,-69.50591000
4.28434298,-69.50591000
4.28690298,-69.50591000
4.28946298,-69.50591000
4.29202298,-69.50591000
4.29458298,-69.50591000
4.29714298,-69.50591000
4.29970298,-69.50591000
4.30226298,-69.50591000
4.30482298,-69.50591000
4.30738298,-69.50591000
4.30994298,-69.50591000
4.31250298,-69.50591000
4.31506298,-69.50591000
4.31762298,-69.50591000
4.32018298,-69.50591000
4.32274298,-69.50591000
4.32530298,-69.50591000
4.32786298,-69.50591000
4.33042298,-69.50591000
4.33298298,-69.50591000
4.33554298,-69.50591000
4.33810298,-69.50591000
4.34066298,-69.50591000
4.34322298,-69.50591000
4.34578298,-69.50591000
4.34834298,-69.50591000
4.35090298,-69.50591000
4.35346298,-69.50591000
4.35602298,-69.50591000
4.35858298,-69.50591000
4.36114298,-69.50591000
4.36370298,-69.50591000
4.36626298,-69.50591000
4.36882298,-69.50591000
4.37138298,-69.50591000
4.37394298,-69.50591000
4.37650298,-69.50591000
4.37906298,-69.50591000
4.38162298,-69.50591000
4.38418298,-69.50591000
4.38674298,-69.50591000
4.38930298,-69.50591000
4.39186298,-69.50591000
4.39442298,-69.50591000
4.39698298,-69.50591000
4.39954298,-69.50591000
4.40210298,-69.50591000
4.40466298,-69.50591000
4.40722298,-69.50591000
4.40978298,-69.50591000
4.41234298,-69.50591000
4.41490298,-69.50591000
4.41746298,-69.50591000
4.42002298,-69.50591000
4.42258298,-69.50591000
4.42514298,-69.50591000
4.42770298,-69.50591000
4.43026298,-69.50591000
4.43282298,-69.50591000
4.43538298,-69.50591000
4.43794298,-69.50591000
4.44050298,-69.50591000
4.44306298,-69.50591000
4.44562298,-69.50591000
4.44818298,-69.50591000
4.45074298,-69.50591000
4.45330298,-69.50591000
4.45586298,-69.50591000
4.45842298,-69.50591000
4.46098298,-69.50591000
4.46354298,-69.50591000
4.46610298,-69.50591000
4.46866298,-69.50591000
4.47122298,-69.50591000
4.47378298,-69.50591000
4.47634298,-69.50591000
4.47890298,-69.50591000
4.48146298,-69.50591000
4.48402298,-69.50591000
4.48658298,-69.50591000
4.48914298,-69.50591000
4.49170298,-69.50591000
4.49426298,-69.50591000
4.49682298,-69.50591000
4.49938298,-69.50591000
4.50194298,-69.50591000
4.50450298,-69.50591000
4.50706298,-69.50591000
4.50962298,-69.50591000
4.51218298,-69.50591000
4.51474298,-69.50591000
4.51730298,-69.50591000
4.51986298,-69.50591000
4.52242298,-69.50591000
4.52498298,-69.50591000
4.52754298,-69.50591000
4.53010298,-69.50591000
4.53266298,-69.50591000
4.53522298,-69.50591000
4.53778298,-69.50591000
4.54034298,-69.50591000
4.54290298,-69.50591000
4.54546298,-69.50591000
4.54802298,-69.50591000
4.55058298,-69.50591000
4.55314298,-69.50591000
4.55570298,-69.50591000
4.55826298,-69.50591000
4.56082298,-69.50591000
4.56338298,-69.50591000
4.56594298,-69.50591000
4.56850298,-69.50591000
4.57106298,-69.50591000
4.57362298,-69.50591000
4.57618298,-69.50591000
4.57874298,-69.50591000
4.58130298,-69.50591000
4.58386298,-69.50591000
4.58642298,-69.50591000
4.58898298,-69.50591000
4.59154298,-69.50591000
4.59410298,-69.50591000
4.59666298,-69.50591000
4.59922298,-69.50591000
4.60178298,-69.50591000
4.60434298,-69.50591000
4.60690298,-69.50591000
4.60946298,-69.50591000
4.61202298,-69.50591000
4.61458298,-69.50591000
4.61714298,-69.50591000
4.61970298,-69.50591000
4.62226298,-69.50591000
4.62482298,-69.50591000
4.62738298,-69.50591000
4.62994298,-69.50591000
4.63250298,-69.50591000
4.63506298,-69.50591000
4.63762298,-69.50591000
4.64018298,-69.50591000
4.64274298,-69.50591000
4.64530298,-69.50591000
4.64786298,-69.50591000
4.65042298,-69.50591000
4.65298298,-69.50591000
4.65554298,-69.50591000
4.65810298,-69.50591000
4.66066298,-69.50591000
4.66322298,-69.50591000
4.66578298,-69.50591000
4.66834298,-69.50591000
4.67090298,-69.50591000
4.67346298,-69.50591000
4.67602298,-69.50591000
4.67858298,-69.50591000
4.68114298,-69.50591000
4.68370298,-69.50591000
4.68626298,-69.50591000
4.68882298,-69.50591000
4.69138298,-69.50591000
4.69394298,-69.50591000
4.69650298,-69.50591000
4.69906298,-69.50591000
4.70162298,-69.50591000
4.70418298,-69.50591000
4.70674298,-69.50591000
4.70930298,-69.50591000
4.71186298,-69.50591000
4.71442298,-69.50591000
4.71698298,-69.50591000
4.71954298,-69.50591000
4.72210298,-69.50591000
4.72466298,-69.50591000
4.72722298,-69.50591000
4.72978298,-69.50591000
4.73234298,-69.50591000
4.73490298,-69.50591000
4.73746298,-69.50591000
4.74002298,-69.50591000
4.74258298,-69.50591000
4.74514298,-69.50591000
4.74770298,-69.50591000
4.75026298,-69.50591000
4.75282298,-69.50591000
4.75538298,-69.50591000
4.75794298,-69.50591000
4.76050298,-69.50591000
4.76306298,-69.50591000
4.76562298,-69.50591000
4.76818298,-69.50591000
4.77074298,-69.50591000
4.77330298,-69.50591000
4.77586298,-69.50591000
4.77842298,-69.50591000
4.78098298,-69.50591000
4.78354298,-69.50591000
4.78610298,-69.50591000
4.78866298,-69.50591000
4.79122298,-69.50591000
4.79378298,-69.50591000
4.79634298,-69.50591000
4.79890298,-69.50591000
4.80146298,-69.50591000
4.80402298,-69.50591000
4.80658298,-69.50591000
4.80914298,-69.50591000
4.81170298,-69.50591000
4.81426298,-69.50591000
4.81682298,-69.50591000
4.81938298,-69.50591000
4.82194298,-69.50591000
4.82450298,-69.50591000
4.82706298,-69.50591000
4.82962298,-69.50591000
4.83218298,-69.50591000
4.83474298,-69.50591000
4.83730298,-69.50591000
4.83986298,-69.50591000
4.84242298,-69.50591000
4.84498298,-69.50591000
4.84754298,-69.50591000
4.85010298,-69.50591000
4.85266298,-69.50591000
4.85522298,-69.50591000
4.85778298,-69.50591000
4.86034298,-69.50591000
4.86290298,-69.50591000
4.86546298,-69.50591000
4.86802298,-69.50591000
4.87058298,-69.50591000
4.87314298,-69.50591000
4.87570298,-69.50591000
4.87826298,-69.50591000
4.88082298,-69.50591000
4.88338298,-69.50591000
4.88594298,-69.50591000
4.88850298,-69.50591000
4.89106298,-69.50591000
4.89362298,-69.50591000
4.89618298,-73.99212000
4.89874298,-73.99212000
4.90130298,-69.50591000
4.90386298,-73.99212000
4.90642298,-69.50591000
4.90898298,-69.50591000
4.91154298,-73.99212000
4.91410298,-73.99212000
4.91666298,-69.50591000
4.91922298,-73.99212000
4.92178298,-73.99212000
4.92434298,-69.50591000
4.92690298,-73.99212000
4.92946298,-69.50591000
4.93202298,-73.99212000
4.93458298,-73.99212000
4.93714298,-73.99212000
4.93970298,-73.99212000
4.94226298,-73.99212000
4.94482298,-69.50591000
4.94738298,-73.99212000
4.94994298,-69.50591000
4.95250298,-73.99212000
4.95506298,-73.99212000
4.95762298,-73.99212000
4.96018298,-73.99212000
4.96274298,-69.50591000
4.96530298,-73.99212000
4.96786298,-73.99212000
4.97042298,-69.50591000
4.97298298,-73.99212000
4.97554298,-69.50591000
4.97810298,-69.50591000
4.98066298,-73.99212000
4.98322298,-73.99212000
4.98578298,-73.99212000
4.98834298,-73.99212000
4.99090298,-73.99212000
4.99346298,-73.99212000
4.99602298,-73.99212000
4.99858298,-73.99212000
5.00114298,-73.99212000
5.00370298,-73.99212000
5.00626298,-73.99212000
5.00882298,-69.50591000
5.01138298,-73.99212000
5.01394298,-73.99212000
5.01650298,-73.99212000
5.01906298,-73.99212000
5.02162298,-69.50591000
5.02418298,-73.99212000
5.02674298,-73.99212000
5.02930298,-78.46308000
5.03186298,-73.99212000
5.03442298,-73.99212000
5.03698298,-78.46308000
5.03954298,-73.99212000
5.04210298,-69.50591000
5.04466298,-73.99212000
5.04722298,-73.99212000
5.04978298,-73.99212000
5.05234298,-73.99212000
5.05490298,-73.99212000
5.05746298,-73.99212000
5.06002298,-73.99212000
5.06258298,-73.99212000
5.06514298,-73.99212000
5.06770298,-73.99212000
5.07026298,-73.99212000
5.07282298,-73.99212000
5.07538298,-73.99212000
5.07794298,-73.99212000
5.08050298,-73.99212000
5.08306298,-78.46308000
5.08562298,-78.46308000
5.08818298,-73.99212000
5.09074298,-78.46308000
5.09330298,-73.99212000
5.09586298,-73.99212000
5.09842298,-73.99212000
5.10098298,-73.99212000
5.10354298,-73.99212000
5.10610298,-73.99212000
5.10866298,-78.46308000
5.11122298,-73.99212000
5.11378298,-78.46308000
5.11634298,-73.99212000
5.11890298,-73.99212000
5.12146298,-73.99212000
5.12402298,-73.99212000
5.12658298,-78.46308000
5.12914298,-78.46308000
5.13170298,-78.46308000
5.13426298,-73.99212000
5.13682298,-78.46308000
5.13938298,-73.99212000
5.14194298,-73.99212000
5.14450298,-73.99212000
5.14706298,-73.99212000
5.14962298,-73.99212000
5.15218298,-73.99212000
5.15474298,-73.99212000
5.15730298,-73.99212000
5.15986298,-73.99212000
5.16242298,-73.99212000
5.16498298,-73.99212000
5.16754298,-78.46308000
5.17010298,-73.99212000
5.17266298,-78.46308000
5.17522298,-73.99212000
5.17778298,-73.99212000
5.18034298,-78.46308000
5.18290298,-73.99212000
5.18546298,-78.46308000
5.18802298,-73.99212000
5.19058298,-73.99212000
5.19314298,-78.46308000
5.19570298,-73.99212000
5.19826298,-73.99212000
5.20082298,-73.99212000
5.20338298,-73.99212000
5.20594298,-73.99212000
5.20850298,-73.99212000
5.21106298,-78.46308000
5.21362298,-73.99212000
5.21618298,-73.99212000
5.21874298,-73.99212000
5.22130298,-73.99212000
5.22386298,-73.99212000
5.22642298,-73.99212000
5.22898298,-78.46308000
5.23154298,-73.99212000
5.23410298,-73.99212000
5.23666298,-73.99212000
5.23922298,-78.46308000
5.24178298,-73.99212000
5.24434298,-73.99212000
5.24690298,-73.99212000
5.24946298,-73.99212000
5.25202298,-73.99212000
5.25458298,-73.99212000
5.25714298,-73.99212000
5.25970298,-73.99212000
5.26226298,-73.99212000
5.26482298,-73.99212000
5.26738298,-73.99212000
5.26994298,-69.50591000
5.27250298,-73.99212000
5.27506298,-73.99212000
5.27762298,-73.99212000
5.28018298,-73.99212000
5.28274298,-73.99212000
5.28530298,-73.99212000
5.28786298,-73.99212000
5.29042298,-73.99212000
5.29298298,-73.99212000
5.29554298,-78.46308000
5.29810298,-73.99212000
5.30066298,-73.99212000
5.30322298,-69.50591000
5.30578298,-73.99212000
5.30834298,-73.99212000
5.31090298,-69.50591000
5.31346298,-73.99212000
5.31602298,-73.99212000
5.31858298,-73.99212000
5.32114298,-69.50591000
5.32370298,-73.99212000
5.32626298,-73.99212000
5.32882298,-69.50591000
5.33138298,-73.99212000
5.33394298,-73.99212000
5.33650298,-73.99212000
5.33906298,-73.99212000
5.34162298,-69.50591000
5.34418298,-69.50591000
5.34674298,-73.99212000
5.34930298,-73.99212000
5.35186298,-69.50591000
5.35442298,-73.99212000
5.35698298,-69.50591000
5.35954298,-73.99212000
5.36210298,-69.50591000
5.36466298,-69.50591000
5.36722298,-73.99212000
5.36978298,-78.46308000
5.37234298,-73.99212000
5.37490298,-73.99212000
5.37746298,-69.50591000
5.38002298,-73.99212000
5.38258298,-73.99212000
5.38514298,-73.99212000
5.38770298,-73.99212000
5.39026298,-73.99212000
5.39282298,-73.99212000
5.39538298,-73.99212000
5.39794298,-73.99212000
5.40050298,-73.99212000
5.40306298,-73.99212000
5.40562298,-73.99212000
5.40818298,-73.99212000
5.41074298,-73.99212000
5.41330298,-73.99212000
5.41586298,-69.50591000
5.41842298,-69.50591000
5.42098298,-73.99212000
5.42354298,-73.99212000
5.42610298,-73.99212000
5.42866298,-73.99212000
5.43122298,-73.99212000
5.43378298,-78.46308000
5.43634298,-73.99212000
5.43890298,-73.99212000
5.44146298,-73.99212000
5.44402298,-73.99212000
5.44658298,-73.99212000
5.44914298,-73.99212000
5.45170298,-73.99212000
5.45426298,-73.99212000
5.45682298,-73.99212000
5.45938298,-73.99212000
5.46194298,-73.99212000
5.46450298,-73.99212000
5.46706298,-73.99212000
5.46962298,-73.99212000
5.47218298,-73.99212000
5.47474298,-73.99212000
5.47730298,-73.99212000
5.47986298,-73.99212000
5.48242298,-73.99212000
5.48498298,-73.99212000
5.48754298,-73.99212000
5.49010298,-73.99212000
5.49266298,-73.99212000
5.49522298,-73.99212000
5.49778298,-73.99212000
5.50034298,-73.99212000
5.50290298,-69.50591000
5.50546298,-73.99212000
5.50802298,-73.99212000
5.51058298,-73.99212000
5.51314298,-73.99212000
5.51570298,-73.99212000
5.51826298,-69.50591000
5.52082298,-73.99212000
5.52338298,-73.99212000
5.52594298,-73.99212000
5.52850298,-73.99212000
5.53106298,-73.99212000
5.53362298,-73.99212000
5.53618298,-73.99212000
5.53874298,-73.99212000
5.54130298,-73.99212000
5.54386298,-73.99212000
5.54642298,-73.99212000
5.54898298,-73.99212000
5.55154298,-73.99212000
5.55410298,-73.99212000
5.55666298,-73.99212000
5.55922298,-73.99212000
5.56178298,-73.99212000
5.56434298,-73.99212000
5.56690298,-73.99212000
5.56946298,-73.99212000
5.57202298,-73.99212000
5.57458298,-73.99212000
5.57714298,-73.99212000
5.57970298,-73.99212000
5.58226298,-73.99212000
5.58482298,-73.99212000
5.58738298,-73.99212000
5.58994298,-73.99212000
5.59250298,-73.99212000
5.59506298,-73.99212000
5.59762298,-73.99212000
5.60018298,-73.99212000
5.60274298,-73.99212000
5.60530298,-73.99212000
5.60786298,-73.99212000
5.61042298,-73.99212000
5.61298298,-73.99212000
5.61554298,-73.99212000
5.61810298,-73.99212000
5.62066298,-73.99212000
5.62322298,-73.99212000
5.62578298,-73.99212000
5.62834298,-73.99212000
5.63090298,-73.99212000
5.63346298,-73.99212000
5.63602298,-73.99212000
5.63858298,-73.99212000
5.64114298,-69.50591000
5.64370298,-73.99212000
5.64626298,-73.99212000
5.64882298,-73.99212000
5.65138298,-73.99212000
5.65394298,-73.99212000
5.65650298,-73.99212000
5.65906298,-73.99212000
5.66162298,-73.99212000
5.66418298,-73.99212000
5.66674298,-73.99212000
5.66930298,-73.99212000
5.67186298,-73.99212000
5.67442298,-73.99212000
5.67698298,-73.99212000
5.67954298,-73.99212000
5.68210298,-73.99212000
5.68466298,-73.99212000
5.68722298,-73.99212000
5.68978298,-73.99212000
5.69234298,-73.99212000
5.69490298,-73.99212000
5.69746298,-78.46308000
5.70002298,-73.99212000
5.70258298,-73.99212000
5.70514298,-73.99212000
5.70770298,-73.99212000
5.71026298,-73.99212000
5.71282298,-73.99212000
5.71538298,-78.46308000
5.71794298,-73.99212000
5.72050298,-73.99212000
5.72306298,-78.46308000
5.72562298,-73.99212000
5.72818298,-73.99212000
5.73074298,-73.99212000
5.73330298,-73.99212000
5.73586298,-73.99212000
5.73842298,-73.99212000
5.74098298,-73.99212000
5.74354298,-69.50591000
5.74610298,-73.99212000
5.74866298,-73.99212000
5.75122298,-69.50591000
5.75378298,-73.99212000
5.75634298,-73.99212000
5.75890298,-73.99212000
5.76146298,-69.50591000
5.76402298,-73.99212000
5.76658298,-73.99212000
5.76914298,-73.99212000
5.77170298,-73.99212000
5.77426298,-73.99212000
5.77682298,-73.99212000
5.77938298,-73.99212000
5.78194298,-73.99212000
5.78450298,-73.99212000
5.78706298,-78.46308000
5.78962298,-73.99212000
5.79218298,-73.99212000
5.79474298,-69.50591000
5.79730297,-73.99212000
5.79986297,-73.99212000
5.80242297,-73.99212000
5.80498297,-78.46308000
5.80754297,-73.99212000
5.81010297,-69.50591000
5.81266297,-69.50591000
5.81522297,-73.99212000
5.81778297,-73.99212000
5.82034297,-73.99212000
5.82290297,-73.99212000
5.82546297,-73.99212000
5.82802297,-73.99212000
5.83058297,-73.99212000
5.83314297,-73.99212000
5.83570297,-73.99212000
5.83826297,-73.99212000
5.84082297,-73.99212000
5.84338297,-73.99212000
5.84594297,-73.99212000
5.84850297,-73.99212000
5.85106297,-78.46308000
5.85362297,-73.99212000
5.85618297,-73.99212000
5.85874297,-73.99212000
5.86130297,-73.99212000
5.86386297,-73.99212000
5.86642297,-69.50591000
5.86898297,-69.50591000
5.87154297,-73.99212000
5.87410297,-73.99212000
5.87666297,-73.99212000
5.87922297,-73.99212000
5.88178297,-73.99212000
5.88434297,-73.99212000
5.88690297,-73.99212000
5.88946297,-73.99212000
5.89202297,-73.99212000
5.89458297,-69.50591000
5.89714297,-78.46308000
5.89970297,-69.50591000
5.90226297,-73.99212000
5.90482297,-73.99212000
5.90738297,-73.99212000
5.90994297,-69.50591000
5.91250297,-73.99212000
5.91506297,-78.46308000
5.91762297,-73.99212000
5.92018297,-73.99212000
5.92274297,-73.99212000
5.92530297,-73.99212000
5.92786297,-73.99212000
5.93042297,-73.99212000
5.93298297,-73.99212000
5.93554297,-73.99212000
5.93810297,-73.99212000
5.94066297,-73.99212000
5.94322297,-73.99212000
5.94578297,-69.50591000
5.94834297,-73.99212000
5.95090297,-73.99212000
5.95346297,-69.50591000
5.95602297,-73.99212000
5.95858297,-73.99212000
5.96114297,-73.99212000
5.96370297,-73.99212000
5.96626297,-73.99212000
5.96882297,-73.99212000
5.97138297,-73.99212000
5.97394297,-73.99212000
5.97650297,-73.99212000
5.97906297,-73.99212000
5.98162297,-73.99212000
5.98418297,-73.99212000
5.98674297,-73.99212000
5.98930297,-73.99212000
5.99186297,-73.99212000
5.99442297,-73.99212000
5.99698297,-73.99212000
5.99954297,-73.99212000
6.00210297,-73.99212000
6.00466297,-69.50591000
6.00722297,-73.99212000
6.00978297,-73.99212000
6.01234297,-73.99212000
6.01490297,-69.50591000
6.01746297,-69.50591000
6.02002297,-73.99212000
6.02258297,-73.99212000
6.02514297,-73.99212000
6.02770297,-73.99212000
6.03026297,-73.99212000
6.03282297,-73.99212000
6.03538297,-73.99212000
6.03794297,-69.50591000
6.04050297,-73.99212000
6.04306297,-73.99212000
6.04562297,-73.99212000
6.04818297,-73.99212000
6.05074297,-73.99212000
6.05330297,-73.99212000
6.05586297,-73.99212000
6.05842297,-69.50591000
6.06098297,-73.99212000
6.06354297,-73.99212000
6.06610297,-73.99212000
6.06866297,-73.99212000
6.07122297,-73.99212000
6.07378297,-73.99212000
6.07634297,-73.99212000
6.07890297,-73.99212000
6.08146297,-73.99212000
6.08402297,-73.99212000
6.08658297,-73.99212000
6.08914297,-69.50591000
6.09170297,-73.99212000
6.09426297,-73.99212000
6.09682297,-73.99212000
6.09938297,-69.50591000
6.10194297,-73.99212000
6.10450297,-73.99212000
6.10706297,-73.99212000
6.10962297,-73.99212000
6.11218297,-73.99212000
6.11474297,-73.99212000
6.11730297,-69.50591000
6.11986297,-73.99212000
6.12242297,-73.99212000
6.12498297,-73.99212000
6.12754297,-73.99212000
6.13010297,-73.99212000
6.13266297,-73.99212000
6.13522297,-73.99212000
6.13778297,-78.46308000
6.14034297,-73.99212000
6.14290297,-73.99212000
6.14546297,-73.99212000
6.14802297,-73.99212000
6.15058297,-73.99212000
6.15314297,-73.99212000
6.15570297,-73.99212000
6.15826297,-73.99212000
6.16082297,-73.99212000
6.16338297,-73.99212000
6.16594297,-73.99212000
6.16850297,-73.99212000
6.17106297,-73.99212000
6.17362297,-73.99212000
6.17618297,-73.99212000
6.17874297,-73.99212000
6.18130297,-73.99212000
6.18386297,-69.50591000
6.18642297,-73.99212000
6.18898297,-73.99212000
6.19154297,-73.99212000
6.19410297,-73.99212000
6.19666297,-73.99212000
6.19922297,-73.99212000
6.20178297,-73.99212000
6.20434297,-78.46308000
6.20690297,-78.46308000
6.20946297,-73.99212000
6.21202297,-73.99212000
6.21458297,-73.99212000
6.21714297,-73.99212000
6.21970297,-73.99212000
6.22226297,-78.46308000
6.22482297,-73.99212000
6.22738297,-78.46308000
6.22994297,-73.99212000
6.23250297,-73.99212000
6.23506297,-73.99212000
6.23762297,-73.99212000
6.24018297,-78.46308000
6.24274297,-69.50591000
6.24530297,-73.99212000
6.24786297,-73.99212000
6.25042297,-73.99212000
6.25298297,-73.99212000
6.25554297,-73.99212000
6.25810297,-73.99212000
6.26066297,-73.99212000
6.26322297,-73.99212000
6.26578297,-78.46308000
6.26834297,-78.46308000
6.27090297,-73.99212000
6.27346297,-73.99212000
6.27602297,-73.99212000
6.27858297,-78.46308000
6.28114297,-73.99212000
6.28370297,-73.99212000
6.28626297,-78.46308000
6.28882297,-78.46308000
6.29138297,-78.46308000
6.29394297,-73.99212000
6.29650297,-73.99212000
6.29906297,-78.46308000
6.30162297,-73.99212000
6.30418297,-73.99212000
6.30674297,-73.99212000
6.30930297,-78.46308000
6.31186297,-73.99212000
6.31442297,-73.99212000
6.31698297,-78.46308000
6.31954297,-73.99212000
6.32210297,-73.99212000
6.32466297,-73.99212000
6.32722297,-73.99212000
6.32978297,-73.99212000
6.33234297,-78.46308000
6.33490297,-73.99212000
6.33746297,-73.99212000
6.34002297,-73.99212000
6.34258297,-73.99212000
6.34514297,-73.99212000
6.34770297,-78.46308000
6.35026297,-73.99212000
6.35282297,-73.99212000
6.35538297,-69.50591000
6.35794297,-73.99212000
6.36050297,-73.99212000
6.36306297,-73.99212000
6.36562297,-73.99212000
6.36818297,-73.99212000
6.37074297,-73.99212000
6.37330297,-78.46308000
6.37586297,-73.99212000
6.37842297,-73.99212000
6.38098297,-78.46308000
6.38354297,-73.99212000
6.38610297,-78.46308000
6.38866297,-73.99212000
6.39122297,-73.99212000
6.39378297,-73.99212000
6.39634297,-73.99212000
6.39890297,-78.46308000
6.40146297,-73.99212000
6.40402297,-78.46308000
6.40658297,-78.46308000
6.40914297,-73.99212000
6.41170297,-78.46308000
6.41426297,-78.46308000
6.41682297,-78.46308000
6.41938297,-73.99212000
6.42194297,-73.99212000
6.42450297,-73.99212000
6.42706297,-78.46308000
6.42962297,-73.99212000
6.43218297,-73.99212000
6.43474297,-73.99212000
6.43730297,-73.99212000
6.43986297,-73.99212000
6.44242297,-73.99212000
6.44498297,-78.46308000
6.44754297,-73.99212000
6.45010297,-78.46308000
6.45266297,-73.99212000
6.45522297,-78.46308000
6.45778297,-73.99212000
6.46034297,-73.99212000
6.46290297,-73.99212000
6.46546297,-73.99212000
6.46802297,-78.46308000
6.47058297,-73.99212000
6.47314297,-73.99212000
6.47570297,-69.50591000
6.47826297,-73.99212000
6.48082297,-73.99212000
6.48338297,-73.99212000
6.48594297,-73.99212000
6.48850297,-73.99212000
6.49106297,-73.99212000
6.49362297,-69.50591000
6.49618297,-69.50591000
6.49874297,-73.99212000
6.50130297,-73.99212000
6.50386297,-69.50591000
6.50642297,-69.50591000
6.50898297,-69.50591000
6.51154297,-73.99212000
6.51410297,-69.50591000
6.51666297,-73.99212000
6.51922297,-73.99212000
6.52178297,-73.99212000
6.52434297,-73.99212000
6.52690297,-69.50591000
6.52946297,-69.50591000
6.53202297,-73.99212000
6.53458297,-73.99212000
6.53714297,-73.99212000
6.53970297,-69.50591000
6.54226297,-69.50591000
6.54482297,-69.50591000
6.54738297,-69.50591000
6.54994297,-69.50591000
6.55250297,-69.50591000
6.55506297,-73.99212000
6.55762297,-69.50591000
6.56018297,-69.50591000
6.56274297,-69.50591000
6.56530297,-69.50591000
6.56786297,-69.50591000
6.57042297,-69.50591000
6.57298297,-69.50591000
6.57554297,-69.50591000
6.57810297,-69.50591000
6.58066297,-73.99212000
6.58322297,-69.50591000
6.58578297,-69.50591000
6.58834297,-69.50591000
6.59090297,-73.99212000
6.59346297,-69.50591000
6.59602297,-69.50591000
6.59858297,-69.50591000
6.60114297,-69.50591000
6.60370297,-69.50591000
6.60626297,-73.99212000
6.60882297,-69.50591000
6.61138297,-69.50591000
6.61394297,-69.50591000
6.61650297,-69.50591000
6.61906297,-69.50591000
6.62162297,-69.50591000
6.62418297,-69.50591000
6.62674297,-69.50591000
6.62930297,-69.50591000
6.63186297,-69.50591000
6.63442297,-73.99212000
6.63698297,-69.50591000
6.63954297,-69.50591000
6.64210297,-69.50591000
6.64466297,-69.50591000
6.64722297,-69.50591000
6.64978297,-69.50591000
6.65234297,-69.50591000
6.65490297,-69.50591000
6.65746297,-69.50591000
6.66002297,-73.99212000
6.66258297,-69.50591000
6.66514297,-73.99212000
6.66770297,-73.99212000
6.67026297,-69.50591000
6.67282297,-69.50591000
6.67538297,-69.50591000
6.67794297,-69.50591000
6.68050297,-69.50591000
6.68306297,-73.99212000
6.68562297,-69.50591000
6.68818297,-69.50591000
6.69074297,-69.50591000
6.69330297,-73.99212000
6.69586297,-73.99212000
6.69842297,-69.50591000
6.70098297,-73.99212000
6.70354297,-69.50591000
6.70610297,-73.99212000
6.70866297,-69.50591000
6.71122297,-73.99212000
6.71378297,-69.50591000
6.71634297,-73.99212000
6.71890297,-69.50591000
6.72146297,-73.99212000
6.72402297,-69.50591000
6.72658297,-73.99212000
6.72914297,-73.99212000
6.73170297,-73.99212000
6.73426297,-73.99212000
6.73682297,-73.99212000
6.73938297,-73.99212000
6.74194297,-73.99212000
6.74450297,-78.46308000
6.74706297,-73.99212000
6.74962297,-78.46308000
6.75218297,-73.99212000
6.75474297,-73.99212000
6.75730297,-78.46308000
6.75986297,-73.99212000
6.76242297,-78.46308000
6.76498297,-73.99212000
6.76754297,-78.46308000
6.77010297,-78.46308000
6.77266297,-78.46308000
6.77522297,-78.46308000
6.77778297,-78.46308000
6.78034297,-78.46308000
6.78290297,-78.46308000
6.78546297,-78.46308000
6.78802297,-78.46308000
6.79058297,-78.46308000
6.79314297,-78.46308000
6.79570297,-78.46308000
6.79826297,-78.46308000
6.80082297,-78.46308000
6.80338297,-78.46308000
6.80594297,-78.46308000
6.80850297,-78.46308000
6.81106297,-82.93404000
6.81362297,-78.46308000
6.81618297,-82.93404000
6.81874297,-78.46308000
6.82130297,-82.93404000
6.82386297,-82.93404000
6.82642297,-82.93404000
6.82898297,-82.93404000
6.83154297,-82.93404000
6.83410297,-82.93404000
6.83666297,-82.93404000
6.83922297,-82.93404000
6.84178297,-82.93404000
6.84434297,-87.40501000
6.84690297,-87.40501000
6.84946297,-82.93404000
6.85202297,-87.40501000
6.85458297,-87.40501000
6.85714297,-87.40501000
6.85970297,-87.40501000
6.86226297,-87.40501000
6.86482297,-87.40501000
6.86738297,-87.40501000
6.86994297,-87.40501000
6.87250297,-87.40501000
6.87506297,-87.40501000
6.87762297,-87.40501000
6.88018297,-87.40501000
6.88274297,-87.40501000
6.88530297,-87.40501000
6.88786297,-87.40501000
6.89042297,-91.87596000
6.89298297,-87.40501000
6.89554297,-91.87596000
6.89810297,-91.87596000
6.90066297,-91.87596000
6.90322297,-91.87596000
6.90578297,-91.87596000
6.90834297,-96.34693000
6.91090297,-96.34693000
6.91346297,-96.34693000
6.91602297,-96.34693000
6.91858297,-96.34693000
6.92114297,-96.34693000
6.92370297,-96.34693000
6.92626297,-96.34693000
6.92882297,-96.34693000
6.93138297,-96.34693000
6.93394297,-96.34693000
6.93650297,-96.34693000
6.93906297,-96.34693000
6.94162297,-100.81790000
6.94418297,-100.81790000
6.94674297,-96.34693000
6.94930297,-100.81790000
6.95186297,-100.81790000
6.95442297,-100.81790000
6.95698297,-100.81790000
6.95954297,-105.28880000
6.96210297,-105.28880000
6.96466297,-105.28880000
6.96722297,-105.28880000
6.96978297,-105.28880000
6.97234297,-105.28880000
6.97490297,-105.28880000
6.97746297,-105.28880000
6.98002297,-105.28880000
6.98258297,-105.28880000
6.98514297,-105.28880000
6.98770297,-105.28880000
6.99026297,-105.28880000
6.99282297,-105.28880000
6.99538297,-105.28880000
6.99794297,-105.28880000
7.00050297,-105.28880000
7.00306297,-105.28880000
7.00562297,-105.28880000
7.00818297,-109.75980000
7.01074297,-109.75980000
7.01330297,-114.23080000
7.01586297,-109.75980000
7.01842297,-109.75980000
7.02098297,-109.75980000
7.02354297,-114.23080000
7.02610297,-114.23080000
7.02866297,-109.75980000
7.03122297,-114.23080000
7.03378297,-114.23080000
7.03634297,-114.23080000
7.03890297,-114.23080000
7.04146297,-114.23080000
7.04402297,-114.23080000
7.04658297,-114.23080000
7.04914297,-114.23080000
7.05170297,-114.23080000
7.05426297,-114.23080000
7.05682297,-114.23080000
7.05938297,-114.23080000
7.06194297,-114.23080000
7.06450297,-114.23080000
7.06706297,-114.23080000
7.06962297,-114.23080000
7.07218297,-114.23080000
7.07474297,-118.70170000
7.07730297,-118.70170000
7.07986297,-118.70170000
7.08242297,-118.70170000
7.08498297,-118.70170000
7.08754297,-118.70170000
7.09010297,-118.70170000
7.09266297,-118.70170000
7.09522297,-118.70170000
7.09778297,-118.70170000
7.10034297,-118.70170000
7.10290297,-118.70170000
7.10546297,-118.70170000
7.10802297,-118.70170000
7.11058297,-118.70170000
7.11314297,-118.70170000
7.11570297,-118.70170000
7.11826297,-118.70170000
7.12082297,-118.70170000
7.12338297,-118.70170000
7.12594297,-118.70170000
7.12850297,-123.17270000
7.13106297,-123.17270000
7.13362297,-123.17270000
7.13618297,-123.17270000
7.13874297,-123.17270000
7.14130297,-123.17270000
7.14386297,-123.17270000
7.14642297,-123.17270000
7.14898297,-123.17270000
7.15154297,-123.17270000
7.15410297,-123.17270000
7.15666297,-123.17270000
7.15922297,-123.17270000
7.16178297,-123.17270000
7.16434297,-123.17270000
7.16690297,-123.17270000
7.16946297,-123.17270000
7.17202297,-123.17270000
7.17458297,-123.17270000
7.17714297,-123.17270000
7.17970297,-123.17270000
7.18226297,-123.17270000
7.18482297,-123.17270000
7.18738297,-123.17270000
7.18994297,-123.17270000
7.19250297,-123.17270000
7.19506297,-123.17270000
7.19762297,-123.17270000
7.20018297,-123.17270000
7.20274297,-123.17270000
7.20530297,-123.17270000
7.20786297,-123.17270000
7.21042297,-123.17270000
7.21298297,-118.70170000
7.21554297,-123.17270000
7.21810297,-123.17270000
7.22066297,-118.70170000
7.22322297,-118.70170000
7.22578297,-118.70170000
7.22834297,-118.70170000
7.23090297,-123.17270000
7.23346297,-118.70170000
7.23602297,-118.70170000
7.23858297,-118.70170000
7.24114297,-118.70170000
7.24370297,-118.70170000
7.24626297,-118.70170000
7.24882297,-123.17270000
7.25138297,-118.70170000
7.25394297,-118.70170000
7.25650297,-118.70170000
7.25906297,-118.70170000
7.26162297,-118.70170000
7.26418297,-118.70170000
7.26674297,-118.70170000
7.26930297,-118.70170000
7.27186297,-118.70170000
7.27442297,-118.70170000
7.27698297,-118.70170000
7.27954297,-118.70170000
7.28210297,-114.23080000
7.28466297,-114.23080000
7.28722297,-118.70170000
7.28978297,-114.23080000
7.29234297,-114.23080000
7.29490297,-118.70170000
7.29746297,-114.23080000
7.30002297,-114.23080000
7.30258297,-114.23080000
7.30514297,-114.23080000
7.30770297,-114.23080000
7.31026297,-114.23080000
7.31282297,-114.23080000
7.31538297,-114.23080000
7.31794297,-114.23080000
7.32050297,-114.23080000
7.32306297,-114.23080000
7.32562297,-114.23080000
7.32818297,-114.23080000
7.33074297,-114.23080000
7.33330297,-114.23080000
7.33586297,-114.23080000
7.33842297,-109.75980000
7.34098297,-109.75980000
7.34354297,-109.75980000
7.34610297,-109.75980000
7.34866297,-114.23080000
7.35122297,-114.23080000
7.35378297,-105.28880000
7.35634297,-109.75980000
7.35890297,-105.28880000
7.36146297,-105.28880000
7.36402297,-105.28880000
7.36658297,-109.75980000
7.36914297,-109.75980000
7.37170297,-105.28880000
7.37426297,-105.28880000
7.37682297,-105.28880000
7.37938297,-105.28880000
7.38194297,-105.28880000
7.38450297,-105.28880000
7.38706297,-105.28880000
7.38962297,-105.28880000
7.39218297,-105.28880000
7.39474297,-105.28880000
7.39730297,-105.28880000
7.39986297,-105.28880000
7.40242297,-105.28880000
7.40498297,-105.28880000
7.40754297,-105.28880000
7.41010297,-105.28880000
7.41266297,-105.28880000
7.41522297,-105.28880000
7.41778297,-105.28880000
7.42034297,-100.81790000
7.42290297,-105.28880000
7.42546297,-100.81790000
7.42802297,-100.81790000
7.43058297,-100.81790000
7.43314297,-100.81790000
7.43570297,-100.81790000
7.43826297,-100.81790000
7.44082297,-100.81790000
7.44338296,-100.81790000
7.44594296,-96.34693000
7.44850296,-96.34693000
7.45106296,-96.34693000
7.45362296,-96.34693000
7.45618296,-96.34693000
7.45874296,-96.34693000
7.46130296,-96.34693000
7.46386296,-96.34693000
7.46642296,-96.34693000
7.46898296,-96.34693000
7.47154296,-96.34693000
7.47410296,-96.34693000
7.47666296,-96.34693000
7.47922296,-96.34693000
7.48178296,-96.34693000
7.48434296,-91.87596000
7.48690296,-96.34693000
7.48946296,-96.34693000
7.49202296,-91.87596000
7.49458296,-91.87596000
7.49714296,-91.87596000
7.49970296,-91.87596000
7.50226296,-91.87596000
7.50482296,-87.40501000
7.50738296,-91.87596000
7.50994296,-91.87596000
7.51250296,-87.40501000
7.51506296,-87.40501000
7.51762296,-87.40501000
7.52018296,-87.40501000
7.52274296,-87.40501000
7.52530296,-87.40501000
7.52786296,-87.40501000
7.53042296,-87.40501000
7.53298296,-87.40501000
7.53554296,-87.40501000
7.53810296,-87.40501000
7.54066296,-87.40501000
7.54322296,-87.40501000
7.54578296,-87.40501000
7.54834296,-87.40501000
7.55090296,-82.93404000
7.55346296,-87.40501000
7.55602296,-82.93404000
7.55858296,-82.93404000
7.56114296,-82.93404000
7.56370296,-82.93404000
7.56626296,-82.93404000
7.56882296,-82.93404000
7.57138296,-82.93404000
7.57394296,-82.93404000
7.57650296,-82.93404000
7.57906296,-82.93404000
7.58162296,-82.93404000
7.58418296,-82.93404000
7.58674296,-78.46308000
7.58930296,-82.93404000
7.59186296,-82.93404000
7.59442296,-82.93404000
7.59698296,-82.93404000
7.59954296,-78.46308000
7.60210296,-78.46308000
7.60466296,-78.46308000
7.60722296,-78.46308000
7.60978296,-82.93404000
7.61234296,-78.46308000
7.61490296,-78.46308000
7.61746296,-78.46308000
7.62002296,-78.46308000
7.62258296,-78.46308000
7.62514296,-78.46308000
7.62770296,-78.46308000
7.63026296,-78.46308000
7.63282296,-78.46308000
7.63538296,-78.46308000
7.63794296,-78.46308000
7.64050296,-78.46308000
7.64306296,-78.46308000
7.64562296,-78.46308000
7.64818296,-78.46308000
7.65074296,-78.46308000
7.65330296,-78.46308000
7.65586296,-78.46308000
7.65842296,-78.46308000
7.66098296,-78.46308000
7.66354296,-73.99212000
7.66610296,-78.46308000
7.66866296,-78.46308000
7.67122296,-78.46308000
7.67378296,-78.46308000
7.67634296,-73.99212000
7.67890296,-78.46308000
7.68146296,-73.99212000
7.68402296,-73.99212000
7.68658296,-78.46308000
7.68914296,-73.99212000
7.69170296,-78.46308000
7.69426296,-73.99212000
7.69682296,-73.99212000
7.69938296,-73.99212000
7.70194296,-73.99212000
7.70450296,-69.50591000
7.70706296,-73.99212000
7.70962296,-73.99212000
7.71218296,-73.99212000
7.71474296,-73.99212000
7.71730296,-69.50591000
7.71986296,-73.99212000
7.72242296,-69.50591000
7.72498296,-69.50591000
7.72754296,-73.99212000
7.73010296,-73.99212000
7.73266296,-69.50591000
7.73522296,-73.99212000
7.73778296,-69.50591000
7.74034296,-69.50591000
7.74290296,-73.99212000
7.74546296,-69.50591000
7.74802296,-69.50591000
7.75058296,-69.50591000
7.75314296,-69.50591000
7.75570296,-69.50591000
7.75826296,-69.50591000
7.76082296,-69.50591000
7.76338296,-69.50591000
7.76594296,-69.50591000
7.76850296,-69.50591000
7.77106296,-69.50591000
7.77362296,-69.50591000
7.77618296,-69.50591000
7.77874296,-69.50591000
7.78130296,-69.50591000
7.78386296,-69.50591000
7.78642296,-69.50591000
7.78898296,-69.50591000
7.79154296,-69.50591000
7.79410296,-69.50591000
7.79666296,-69.50591000
7.79922296,-69.50591000
7.80178296,-69.50591000
7.80434296,-69.50591000
7.80690296,-69.50591000
7.80946296,-69.50591000
7.81202296,-69.50591000
7.81458296,-69.50591000
7.81714296,-69.50591000
7.81970296,-69.50591000
7.82226296,-69.50591000
7.82482296,-69.50591000
7.82738296,-69.50591000
7.82994296,-69.50591000
7.83250296,-69.50591000
7.83506296,-69.50591000
7.83762296,-65.03493000
7.84018296,-69.50591000
7.84274296,-69.50591000
7.84530296,-69.50591000
7.84786296,-65.03493000
7.85042296,-65.03493000
7.85298296,-65.03493000
7.85554296,-69.50591000
7.85810296,-65.03493000
7.86066296,-65.03493000
7.86322296,-65.03493000
7.86578296,-65.03493000
7.86834296,-65.03493000
7.87090296,-65.03493000
7.87346296,-65.03493000
7.87602296,-65.03493000
7.87858296,-65.03493000
7.88114296,-60.56398000
7.88370296,-60.56398000
7.88626296,-60.56398000
7.88882296,-60.56398000
7.89138296,-60.56398000
7.89394296,-60.56398000
7.89650296,-60.56398000
7.89906296,-60.56398000
7.90162296,-60.56398000
7.90418296,-60.56398000
7.90674296,-60.56398000
7.90930296,-60.56398000
7.91186296,-56.09302000
7.91442296,-60.56398000
7.91698296,-56.09302000
7.91954296,-56.09302000
7.92210296,-56.09302000
7.92466296,-56.09302000
7.92722296,-56.09302000
7.92978296,-56.09302000
7.93234296,-51.62206000
7.93490296,-51.62206000
7.93746296,-51.62206000
7.94002296,-51.62206000
7.94258296,-51.62206000
7.94514296,-51.62206000
7.94770296,-51.62206000
7.95026296,-51.62206000
7.95282296,-51.62206000
7.95538296,-47.15109000
7.95794296,-47.15109000
7.96050296,-47.15109000
7.96306296,-47.15109000
7.96562296,-47.15109000
7.96818296,-42.68013000
7.97074296,-47.15109000
7.97330296,-47.15109000
7.97586296,-42.68013000
7.97842296,-42.68013000
7.98098296,-42.68013000
7.98354296,-42.68013000
7.98610296,-42.68013000
7.98866296,-42.68013000
7.99122296,-42.68013000
7.99378296,-42.68013000
7.99634296,-42.68013000
7.99890296,-42.68013000
8.00146296,-38.20917000
8.00402296,-33.73821000
8.00658296,-38.20917000
8.00914296,-38.20917000
8.01170296,-33.73821000
8.01426296,-33.73821000
8.01682296,-33.73821000
8.01938296,-33.73821000
8.02194296,-33.73821000
8.02450296,-33.73821000
8.02706296,-33.73821000
8.02962296,-33.73821000
8.03218296,-33.73821000
8.03474296,-33.73821000
8.03730296,-33.73821000
8.03986296,-33.73821000
8.04242296,-29.26725000
8.04498296,-29.26725000
8.04754296,-29.26725000
8.05010296,-29.26725000
8.05266296,-29.26725000
8.05522296,-29.26725000
8.05778296,-24.79629000
8.06034296,-24.79629000
8.06290296,-29.26725000
8.06546296,-24.79629000
8.06802296,-24.79629000
8.07058296,-24.79629000
8.07314296,-24.79629000
8.07570296,-24.79629000
8.07826296,-24.79629000
8.08082296,-24.79629000
8.08338296,-24.79629000
8.08594296,-24.79629000
8.08850296,-24.79629000
8.09106296,-24.79629000
8.09362296,-20.32533000
8.09618296,-20.32533000
8.09874296,-20.32533000
8.10130296,-20.32533000
8.10386296,-20.32533000
8.10642296,-20.32533000
8.10898296,-20.32533000
8.11154296,-20.32533000
8.11410296,-20.32533000
8.11666296,-15.85437000
8.11922296,-15.85437000
8.12178296,-15.85437000
8.12434296,-15.85437000
8.12690296,-20.32533000
8.12946296,-15.85437000
8.13202296,-15.85437000
8.13458296,-15.85437000
8.13714296,-15.85437000
8.13970296,-15.85437000
8.14226296,-15.85437000
8.14482296,-15.85437000
8.14738296,-15.85437000
8.14994296,-15.85437000
8.15250296,-15.85437000
8.15506296,-15.85437000
8.15762296,-15.85437000
8.16018296,-15.85437000
8.16274296,-15.85437000
8.16530296,-15.85437000
8.16786296,-15.85437000
8.17042296,-15.85437000
8.17298296,-15.85437000
8.17554296,-15.85437000
8.17810296,-15.85437000
8.18066296,-15.85437000
8.18322296,-15.85437000
8.18578296,-15.85437000
8.18834296,-15.85437000
8.19090296,-15.85437000
8.19346296,-11.38340000
8.19602296,-15.85437000
8.19858296,-11.38340000
8.20114296,-15.85437000
8.20370296,-15.85437000
8.20626296,-15.85437000
8.20882296,-15.85437000
8.21138296,-15.85437000
8.21394296,-15.85437000
8.21650296,-15.85437000
8.21906296,-15.85437000
8.22162296,-15.85437000
8.22418296,-15.85437000
8.22674296,-11.38340000
8.22930296,-15.85437000
8.23186296,-15.85437000
8.23442296,-15.85437000
8.23698296,-15.85437000
8.23954296,-11.38340000
8.24210296,-11.38340000
8.24466296,-15.85437000
8.24722296,-15.85437000
8.24978296,-15.85437000
8.25234296,-15.85437000
8.25490296,-15.85437000
8.25746296,-15.85437000
8.26002296,-15.85437000
8.26258296,-11.38340000
8.26514296,-15.85437000
8.26770296,-15.85437000
8.27026296,-15.85437000
8.27282296,-15.85437000
8.27538296,-15.85437000
8.27794296,-15.85437000
8.28050296,-15.85437000
8.28306296,-15.85437000
8.28562296,-15.85437000
8.28818296,-15.85437000
8.29074296,-15.85437000
8.29330296,-15.85437000
8.29586296,-15.85437000
8.29842296,-15.85437000
8.30098296,-15.85437000
8.30354296,-15.85437000
8.30610296,-15.85437000
8.30866296,-15.85437000
8.31122296,-15.85437000
8.31378296,-15.85437000
8.31634296,-15.85437000
8.31890296,-15.85437000
8.32146296,-15.85437000
8.32402296,-20.32533000
8.32658296,-15.85437000
8.32914296,-15.85437000
8.33170296,-15.85437000
8.33426296,-15.85437000
8.33682296,-20.32533000
8.33938296,-20.32533000
8.34194296,-20.32533000
8.34450296,-20.32533000
8.34706296,-20.32533000
8.34962296,-20.32533000
8.35218296,-20.32533000
8.35474296,-20.32533000
8.35730296,-24.79629000
8.35986296,-20.32533000
8.36242296,-20.32533000
8.36498296,-24.79629000
8.36754296,-24.79629000
8.37010296,-24.79629000
8.37266296,-24.79629000
8.37522296,-24.79629000
8.37778296,-24.79629000
8.38034296,-24.79629000
8.38290296,-24.79629000
8.38546296,-24.79629000
8.38802296,-24.79629000
8.39058296,-24.79629000
8.39314296,-24.79629000
8.39570296,-24.79629000
8.39826296,-24.79629000
8.40082296,-24.79629000
8.40338296,-24.79629000
8.40594296,-24.79629000
8.40850296,-24.79629000
8.41106296,-24.79629000
8.41362296,-24.79629000
8.41618296,-24.79629000
8.41874296,-24.79629000
8.42130296,-24.79629000
8.42386296,-29.26725000
8.42642296,-29.26725000
8.42898296,-29.26725000
8.43154296,-29.26725000
8.43410296,-29.26725000
8.43666296,-29.26725000
8.43922296,-24.79629000
8.44178296,-29.26725000
8.44434296,-29.26725000
8.44690296,-29.26725000
8.44946296,-33.73821000
8.45202296,-29.26725000
8.45458296,-29.26725000
8.45714296,-33.73821000
8.45970296,-33.73821000
8.46226296,-33.73821000
8.46482296,-33.73821000
8.46738296,-33.73821000
8.46994296,-33.73821000
8.47250296,-33.73821000
8.47506296,-33.73821000
8.47762296,-33.73821000
8.48018296,-33.73821000
8.48274296,-33.73821000
8.48530296,-33.73821000
8.48786296,-33.73821000
8.49042296,-33.73821000
8.49298296,-33.73821000
8.49554296,-33.73821000
8.49810296,-33.73821000
8.50066296,-33.73821000
8.50322296,-33.73821000
8.50578296,-33.73821000
8.50834296,-33.73821000
8.51090296,-33.73821000
8.51346296,-33.73821000
8.51602296,-33.73821000
8.51858296,-33.73821000
8.52114296,-33.73821000
8.52370296,-38.20917000
8.52626296,-38.20917000
8.52882296,-33.73821000
8.53138296,-38.20917000
8.53394296,-38.20917000
8.53650296,-38.20917000
8.53906296,-38.20917000
8.54162296,-38.20917000
8.54418296,-42.68013000
8.54674296,-42.68013000
8.54930296,-42.68013000
8.55186296,-42.68013000
8.55442296,-42.68013000
8.55698296,-42.68013000
8.55954296,-42.68013000
8.56210296,-42.68013000
8.56466296,-42.68013000
8.56722296,-42.68013000
8.56978296,-42.68013000
8.57234296,-42.68013000
8.57490296,-42.68013000
8.57746296,-42.68013000
8.58002296,-42.68013000
8.58258296,-42.68013000
8.58514296,-47.15109000
8.58770296,-47.15109000
8.59026296,-47.15109000
8.59282296,-47.15109000
8.59538296,-47.15109000
8.59794296,-47.15109000
8.60050296,-47.15109000
8.60306296,-51.62206000
8.60562296,-51.62206000
8.60818296,-51.62206000
8.61074296,-51.62206000
8.61330296,-51.62206000
8.61586296,-51.62206000
8.61842296,-51.62206000
8.62098296,-51.62206000
8.62354296,-51.62206000
8.62610296,-51.62206000
8.62866296,-51.62206000
8.63122296,-51.62206000
8.63378296,-51.62206000
8.63634296,-51.62206000
8.63890296,-51.62206000
8.64146296,-51.62206000
8.64402296,-51.62206000
8.64658296,-51.62206000
8.64914296,-51.62206000
8.65170296,-51.62206000
8.65426296,-51.62206000
8.65682296,-56.09302000
8.65938296,-56.09302000
8.66194296,-51.62206000
8.66450296,-56.09302000
8.66706296,-56.09302000
8.66962296,-56.09302000
8.67218296,-60.56398000
8.67474296,-56.09302000
8.67730296,-60.56398000
8.67986296,-60.56398000
8.68242296,-60.56398000
8.68498296,-60.56398000
8.68754296,-60.56398000
8.69010296,-60.56398000
8.69266296,-60.56398000
8.69522296,-60.56398000
8.69778296,-60.56398000
8.70034296,-60.56398000
8.70290296,-60.56398000
8.70546296,-60.56398000
8.70802296,-60.56398000
8.71058296,-60.56398000
8.71314296,-60.56398000
8.71570296,-60.56398000
8.71826296,-60.56398000
8.72082296,-65.03493000
8.72338296,-65.03493000
8.72594296,-65.03493000
8.72850296,-65.03493000
8.73106296,-65.03493000
8.73362296,-65.03493000
8.73618296,-65.03493000
8.73874296,-65.03493000
8.74130296,-65.03493000
8.74386296,-69.50591000
8.74642296,-65.03493000
8.74898296,-69.50591000
8.75154296,-69.50591000
8.75410296,-69.50591000
8.75666296,-69.50591000
8.75922296,-69.50591000
8.76178296,-69.50591000
8.76434296,-69.50591000
8.76690296,-69.50591000
8.76946296,-69.50591000
8.77202296,-69.50591000
8.77458296,-69.50591000
8.77714296,-69.50591000
8.77970296,-69.50591000
8.78226296,-69.50591000
8.78482296,-69.50591000
8.78738296,-69.50591000
8.78994296,-69.50591000
8.79250296,-69.50591000
8.79506296,-69.50591000
8.79762296,-69.50591000
8.80018296,-69.50591000
8.80274296,-73.99212000
8.80530296,-73.99212000
8.80786296,-73.99212000
8.81042296,-69.50591000
8.81298296,-73.99212000
8.81554296,-73.99212000
8.81810296,-73.99212000
8.82066296,-73.99212000
8.82322296,-73.99212000
8.82578296,-73.99212000
8.82834296,-73.99212000
8.83090296,-78.46308000
8.83346296,-78.46308000
8.83602296,-78.46308000
8.83858296,-78.46308000
8.84114296,-78.46308000
8.84370296,-78.46308000
8.84626296,-78.46308000
8.84882296,-78.46308000
8.85138296,-78.46308000
8.85394296,-78.46308000
8.85650296,-78.46308000
8.85906296,-78.46308000
8.86162296,-78.46308000
8.86418296,-78.46308000
8.86674296,-78.46308000
8.86930296,-78.46308000
8.87186296,-78.46308000
8.87442296,-78.46308000
8.87698296,-82.93404000
8.87954296,-78.46308000
8.88210296,-78.46308000
8.88466296,-78.46308000
8.88722296,-78.46308000
8.88978296,-78.46308000
8.89234296,-78.46308000
8.89490296,-78.46308000
8.89746296,-82.93404000
8.90002296,-78.46308000
8.90258296,-78.46308000
8.90514296,-82.93404000
8.90770296,-78.46308000
8.91026296,-78.46308000
8.91282296,-78.46308000
8.91538296,-82.93404000
8.91794296,-82.93404000
8.92050296,-78.46308000
8.92306296,-82.93404000
8.92562296,-82.93404000
8.92818296,-78.46308000
8.93074296,-82.93404000
8.93330296,-82.93404000
8.93586296,-82.93404000
8.93842296,-82.93404000
8.94098296,-82.93404000
8.94354296,-82.93404000
8.94610296,-82.93404000
8.94866296,-82.93404000
8.95122296,-82.93404000
8.95378296,-82.93404000
8.95634296,-82.93404000
8.95890296,-82.93404000
8.96146296,-82.93404000
8.96402296,-82.93404000
8.96658296,-82.93404000
8.96914296,-82.93404000
8.97170296,-82.93404000
8.97426296,-82.93404000
8.97682296,-82.93404000
8.97938296,-82.93404000
8.98194296,-82.93404000
8.98450296,-82.93404000
8.98706296,-82.93404000
8.98962296,-87.40501000
8.99218296,-82.93404000
8.99474296,-82.93404000
8.99730296,-82.93404000
8.99986296,-82.93404000
9.00242296,-82.93404000
9.00498296,-82.93404000
9.00754296,-82.93404000
9.01010296,-82.93404000
9.01266296,-82.93404000
9.01522296,-87.40501000
9.01778296,-87.40501000
9.02034296,-82.93404000
9.02290296,-82.93404000
9.02546296,-87.40501000
9.02802296,-87.40501000
9.03058296,-82.93404000
9.03314296,-87.40501000
9.03570296,-82.93404000
9.03826296,-82.93404000
9.04082296,-87.40501000
9.04338296,-82.93404000
9.04594296,-82.93404000
9.04850296,-82.93404000
9.05106296,-87.40501000
9.05362296,-87.40501000
9.05618296,-82.93404000
9.05874296,-87.40501000
9.06130296,-82.93404000
9.06386296,-82.93404000
9.06642296,-82.93404000
9.06898296,-82.93404000
9.07154296,-82.93404000
9.07410296,-87.40501000
9.07666296,-82.93404000
9.07922296,-82.93404000
9.08178296,-87.40501000
9.08434296,-87.40501000
9.08690296,-82.93404000
9.08946295,-82.93404000
9.09202295,-82.93404000
9.09458295,-82.93404000
9.09714295,-87.40501000
9.09970295,-87.40501000
9.10226295,-82.93404000
9.10482295,-87.40501000
9.10738295,-82.93404000
9.10994295,-87.40501000
9.11250295,-87.40501000
9.11506295,-87.40501000
9.11762295,-87.40501000
9.12018295,-87.40501000
9.12274295,-87.40501000
9.12530295,-87.40501000
9.12786295,-87.40501000
9.13042295,-82.93404000
9.13298295,-87.40501000
9.13554295,-87.40501000
9.13810295,-82.93404000
9.14066295,-87.40501000
9.14322295,-82.93404000
9.14578295,-87.40501000
9.14834295,-82.93404000
9.15090295,-87.40501000
9.15346295,-82.93404000
9.15602295,-87.40501000
9.15858295,-82.93404000
9.16114295,-87.40501000
9.16370295,-87.40501000
9.16626295,-82.93404000
9.16882295,-87.40501000
9.17138295,-82.93404000
9.17394295,-87.40501000
9.17650295,-82.93404000
9.17906295,-87.40501000
9.18162295,-87.40501000
9.18418295,-87.40501000
9.18674295,-87.40501000
9.18930295,-87.40501000
9.19186295,-87.40501000
9.19442295,-82.93404000
9.19698295,-82.93404000
9.19954295,-82.93404000
9.20210295,-87.40501000
9.20466295,-82.93404000
9.20722295,-82.93404000
9.20978295,-82.93404000
9.21234295,-82.93404000
9.21490295,-82.93404000
9.21746295,-87.40501000
9.22002295,-82.93404000
9.22258295,-87.40501000
9.22514295,-82.93404000
9.22770295,-82.93404000
9.23026295,-82.93404000
9.23282295,-82.93404000
9.23538295,-82.93404000
9.23794295,-82.93404000
9.24050295,-82.93404000
9.24306295,-82.93404000
9.24562295,-82.93404000
9.24818295,-82.93404000
9.25074295,-82.93404000
9.25330295,-82.93404000
9.25586295,-82.93404000
9.25842295,-82.93404000
9.26098295,-82.93404000
9.26354295,-82.93404000
9.26610295,-82.93404000
9.26866295,-82.93404000
9.27122295,-82.93404000
9.27378295,-82.93404000
9.27634295,-82.93404000
9.27890295,-82.93404000
9.28146295,-82.93404000
9.28402295,-82.93404000
9.28658295,-82.93404000
9.28914295,-82.93404000
9.29170295,-82.93404000
9.29426295,-82.93404000
9.29682295,-78.46308000
9.29938295,-78.46308000
9.30194295,-82.93404000
9.30450295,-82.93404000
9.30706295,-82.93404000
9.30962295,-82.93404000
9.31218295,-82.93404000
9.31474295,-82.93404000
9.31730295,-82.93404000
9.31986295,-82.93404000
9.32242295,-78.46308000
9.32498295,-78.46308000
9.32754295,-82.93404000
9.33010295,-82.93404000
9.33266295,-82.93404000
9.33522295,-82.93404000
9.33778295,-82.93404000
9.34034295,-78.46308000
9.34290295,-82.93404000
9.34546295,-78.46308000
9.34802295,-82.93404000
9.35058295,-78.46308000
9.35314295,-78.46308000
9.35570295,-78.46308000
9.35826295,-78.46308000
9.36082295,-82.93404000
9.36338295,-78.46308000
9.36594295,-78.46308000
9.36850295,-78.46308000
9.37106295,-78.46308000
9.37362295,-78.46308000
9.37618295,-82.93404000
9.37874295,-78.46308000
9.38130295,-82.93404000
9.38386295,-78.46308000
9.38642295,-78.46308000
9.38898295,-78.46308000
9.39154295,-78.46308000
9.39410295,-82.93404000
9.39666295,-82.93404000
9.39922295,-78.46308000
9.40178295,-78.46308000
9.40434295,-78.46308000
9.40690295,-82.93404000
9.40946295,-78.46308000
9.41202295,-82.93404000
9.41458295,-78.46308000
9.41714295,-78.46308000
9.41970295,-82.93404000
9.42226295,-82.93404000
9.42482295,-78.46308000
9.42738295,-78.46308000
9.42994295,-82.93404000
9.43250295,-78.46308000
9.43506295,-82.93404000
9.43762295,-82.93404000
9.44018295,-82.93404000
9.44274295,-78.46308000
9.44530295,-82.93404000
9.44786295,-82.93404000
9.45042295,-82.93404000
9.45298295,-78.46308000
9.45554295,-78.46308000
9.45810295,-78.46308000
9.46066295,-82.93404000
9.46322295,-82.93404000
9.46578295,-82.93404000
9.46834295,-82.93404000
9.47090295,-82.93404000
9.47346295,-78.46308000
9.47602295,-82.93404000
9.47858295,-82.93404000
9.48114295,-82.93404000
9.48370295,-78.46308000
9.48626295,-82.93404000
9.48882295,-78.46308000
9.49138295,-82.93404000
9.49394295,-82.93404000
9.49650295,-82.93404000
9.49906295,-78.46308000
9.50162295,-82.93404000
9.50418295,-82.93404000
9.50674295,-82.93404000
9.50930295,-82.93404000
9.51186295,-82.93404000
9.51442295,-82.93404000
9.51698295,-82.93404000
9.51954295,-82.93404000
9.52210295,-82.93404000
9.52466295,-82.93404000
9.52722295,-82.93404000
9.52978295,-82.93404000
9.53234295,-82.93404000
9.53490295,-82.93404000
9.53746295,-82.93404000
9.54002295,-82.93404000
9.54258295,-82.93404000
9.54514295,-82.93404000
9.54770295,-82.93404000
9.55026295,-82.93404000
9.55282295,-78.46308000
9.55538295,-82.93404000
9.55794295,-82.93404000
9.56050295,-82.93404000
9.56306295,-82.93404000
9.56562295,-82.93404000
9.56818295,-82.93404000
9.57074295,-82.93404000
9.57330295,-82.93404000
9.57586295,-82.93404000
9.57842295,-78.46308000
9.58098295,-82.93404000
9.58354295,-82.93404000
9.58610295,-82.93404000
9.58866295,-78.46308000
9.59122295,-78.46308000
9.59378295,-82.93404000
9.59634295,-82.93404000
9.59890295,-78.46308000
9.60146295,-82.93404000
9.60402295,-82.93404000
9.60658295,-78.46308000
9.60914295,-82.93404000
9.61170295,-82.93404000
9.61426295,-82.93404000
9.61682295,-78.46308000
9.61938295,-78.46308000
9.62194295,-78.46308000
9.62450295,-78.46308000
9.62706295,-78.46308000
9.62962295,-82.93404000
9.63218295,-78.46308000
9.63474295,-82.93404000
9.63730295,-78.46308000
9.63986295,-78.46308000
9.64242295,-78.46308000
9.64498295,-78.46308000
9.64754295,-78.46308000
9.65010295,-78.46308000
9.65266295,-78.46308000
9.65522295,-78.46308000
9.65778295,-78.46308000
9.66034295,-78.46308000
9.66290295,-78.46308000
9.66546295,-78.46308000
9.66802295,-78.46308000
9.67058295,-78.46308000
9.67314295,-78.46308000
9.67570295,-78.46308000
9.67826295,-78.46308000
9.68082295,-78.46308000
9.68338295,-78.46308000
9.68594295,-78.46308000
9.68850295,-78.46308000
9.69106295,-78.46308000
9.69362295,-78.46308000
9.69618295,-78.46308000
9.69874295,-78.46308000
9.70130295,-78.46308000
9.70386295,-78.46308000
9.70642295,-78.46308000
9.70898295,-78.46308000
9.71154295,-78.46308000
9.71410295,-78.46308000
9.71666295,-78.46308000
9.71922295,-78.46308000
9.72178295,-78.46308000
9.72434295,-78.46308000
9.72690295,-78.46308000
9.72946295,-78.46308000
9.73202295,-78.46308000
9.73458295,-78.46308000
9.73714295,-78.46308000
9.73970295,-78.46308000
9.74226295,-78.46308000
9.74482295,-78.46308000
9.74738295,-78.46308000
9.74994295,-78.46308000
9.75250295,-78.46308000
9.75506295,-78.46308000
9.75762295,-78.46308000
9.76018295,-78.46308000
9.76274295,-73.99212000
9.76530295,-78.46308000
9.76786295,-78.46308000
9.77042295,-78.46308000
9.77298295,-73.99212000
9.77554295,-73.99212000
9.77810295,-73.99212000
9.78066295,-78.46308000
9.78322295,-78.46308000
9.78578295,-78.46308000
9.78834295,-78.46308000
9.79090295,-78.46308000
9.79346295,-78.46308000
9.79602295,-73.99212000
9.79858295,-78.46308000
9.80114295,-73.99212000
9.80370295,-73.99212000
9.80626295,-78.46308000
9.80882295,-73.99212000
9.81138295,-78.46308000
9.81394295,-73.99212000
9.81650295,-78.46308000
9.81906295,-78.46308000
9.82162295,-73.99212000
9.82418295,-78.46308000
9.82674295,-73.99212000
9.82930295,-78.46308000
9.83186295,-73.99212000
9.83442295,-73.99212000
9.83698295,-73.99212000
9.83954295,-78.46308000
9.84210295,-73.99212000
9.84466295,-78.46308000
9.84722295,-73.99212000
9.84978295,-73.99212000
9.85234295,-78.46308000
9.85490295,-73.99212000
9.85746295,-78.46308000
9.86002295,-73.99212000
9.86258295,-73.99212000
9.86514295,-73.99212000
9.86770295,-73.99212000
9.87026295,-73.99212000
9.87282295,-73.99212000
9.87538295,-73.99212000
9.87794295,-73.99212000
9.88050295,-73.99212000
9.88306295,-73.99212000
9.88562295,-73.99212000
9.88818295,-78.46308000
9.89074295,-73.99212000
9.89330295,-73.99212000
9.89586295,-73.99212000
9.89842295,-73.99212000
9.90098295,-73.99212000
9.90354295,-69.50591000
9.90610295,-73.99212000
9.90866295,-73.99212000
9.91122295,-73.99212000
9.91378295,-73.99212000
9.91634295,-73.99212000
9.91890295,-73.99212000
9.92146295,-78.46308000
9.92402295,-73.99212000
9.92658295,-73.99212000
9.92914295,-78.46308000
9.93170295,-78.46308000
9.93426295,-78.46308000
9.93682295,-73.99212000
9.93938295,-73.99212000
9.94194295,-73.99212000
9.94450295,-73.99212000
9.94706295,-78.46308000
9.94962295,-73.99212000
9.95218295,-73.99212000
9.95474295,-73.99212000
9.95730295,-73.99212000
9.95986295,-78.46308000
9.96242295,-73.99212000
9.96498295,-73.99212000
9.96754295,-73.99212000
9.97010295,-73.99212000
9.97266295,-78.46308000
9.97522295,-73.99212000
9.97778295,-73.99212000
9.98034295,-73.99212000
9.98290295,-73.99212000
9.98546295,-73.99212000
9.98802295,-78.46308000
9.99058295,-73.99212000
9.99314295,-73.99212000
9.99570295,-73.99212000
9.99826295,-73.99212000
10.00082295,-73.99212000
10.00338295,-73.99212000
10.00594295,-73.99212000
10.00850295,-73.99212000
10.01106295,-73.99212000
10.01362295,-73.99212000
10.01618295,-78.46308000
10.01874295,-73.99212000
10.02130295,-78.46308000
10.02386295,-73.99212000
10.02642295,-73.99212000
10.02898295,-78.46308000
10.03154295,-73.99212000
10.03410295,-73.99212000
10.03666295,-73.99212000
10.03922295,-73.99212000
10.04178295,-78.46308000
10.04434295,-78.46308000
10.04690295,-78.46308000
10.04946295,-78.46308000
10.05202295,-73.99212000
10.05458295,-78.46308000
10.05714295,-78.46308000
10.05970295,-78.46308000
10.06226295,-78.46308000
10.06482295,-78.46308000
10.06738295,-73.99212000
10.06994295,-78.46308000
10.07250295,-78.46308000
10.07506295,-78.46308000
10.07762295,-78.46308000
10.08018295,-78.46308000
10.08274295,-78.46308000
10.08530295,-78.46308000
10.08786295,-78.46308000
10.09042295,-78.46308000
10.09298295,-78.46308000
10.09554295,-78.46308000
10.09810295,-78.46308000
10.10066295,-78.46308000
10.10322295,-78.46308000
10.10578295,-78.46308000
10.10834295,-78.46308000
10.11090295,-78.46308000
10.11346295,-78.46308000
10.11602295,-78.46308000
10.11858295,-78.46308000
10.12114295,-78.46308000
10.12370295,-78.46308000
10.12626295,-78.46308000
10.12882295,-78.46308000
10.13138295,-78.46308000
10.13394295,-78.46308000
10.13650295,-78.46308000
10.13906295,-78.46308000
10.14162295,-78.46308000
10.14418295,-78.46308000
10.14674295,-78.46308000
10.14930295,-78.46308000
10.15186295,-78.46308000
10.15442295,-78.46308000
10.15698295,-78.46308000
10.15954295,-78.46308000
10.16210295,-78.46308000
10.16466295,-78.46308000
10.16722295,-78.46308000
10.16978295,-78.46308000
10.17234295,-78.46308000
10.17490295,-78.46308000
10.17746295,-78.46308000
10.18002295,-78.46308000
10.18258295,-78.46308000
10.18514295,-78.46308000
10.18770295,-78.46308000
10.19026295,-78.46308000
10.19282295,-78.46308000
10.19538295,-78.46308000
10.19794295,-78.46308000
10.20050295,-78.46308000
10.20306295,-78.46308000
10.20562295,-78.46308000
10.20818295,-78.46308000
10.21074295,-78.46308000
10.21330295,-78.46308000
10.21586295,-78.46308000
10.21842295,-78.46308000
10.22098295,-73.99212000
10.22354295,-78.46308000
10.22610295,-78.46308000
10.22866295,-73.99212000
10.23122295,-78.46308000
10.23378295,-78.46308000
10.23634295,-78.46308000
10.23890295,-78.46308000
10.24146295,-78.46308000
10.24402295,-78.46308000
10.24658295,-78.46308000
10.24914295,-78.46308000
10.25170295,-73.99212000
10.25426295,-78.46308000
10.25682295,-78.46308000
10.25938295,-78.46308000
10.26194295,-78.46308000
10.26450295,-78.46308000
10.26706295,-73.99212000
10.26962295,-78.46308000
10.27218295,-78.46308000
10.27474295,-78.46308000
10.27730295,-73.99212000
10.27986295,-78.46308000
10.28242295,-78.46308000
10.28498295,-78.46308000
10.28754295,-78.46308000
10.29010295,-78.46308000
10.29266295,-73.99212000
10.29522295,-78.46308000
10.29778295,-78.46308000
10.30034295,-73.99212000
10.30290295,-73.99212000
10.30546295,-78.46308000
10.30802295,-78.46308000
10.31058295,-78.46308000
10.31314295,-78.46308000
10.31570295,-78.46308000
10.31826295,-78.46308000
10.32082295,-78.46308000
10.32338295,-78.46308000
10.32594295,-78.46308000
10.32850295,-78.46308000
10.33106295,-78.46308000
10.33362295,-78.46308000
10.33618295,-78.46308000
10.33874295,-78.46308000
10.34130295,-78.46308000
10.34386295,-78.46308000
10.34642295,-73.99212000
10.34898295,-73.99212000
10.35154295,-73.99212000
10.35410295,-78.46308000
10.35666295,-78.46308000
10.35922295,-78.46308000
10.36178295,-78.46308000
10.36434295,-73.99212000
10.36690295,-78.46308000
10.36946295,-78.46308000
10.37202295,-73.99212000
10.37458295,-73.99212000
10.37714295,-78.46308000
10.37970295,-73.99212000
10.38226295,-78.46308000
10.38482295,-78.46308000
10.38738295,-73.99212000
10.38994295,-73.99212000
10.39250295,-78.46308000
10.39506295,-73.99212000
10.39762295,-73.99212000
10.40018295,-73.99212000
10.40274295,-73.99212000
10.40530295,-73.99212000
10.40786295,-73.99212000
10.41042295,-78.46308000
10.41298295,-73.99212000
10.41554295,-73.99212000
10.41810295,-73.99212000
10.42066295,-73.99212000
10.42322295,-73.99212000
10.42578295,-73.99212000
10.42834295,-73.99212000
10.43090295,-73.99212000
10.43346295,-73.99212000
10.43602295,-73.99212000
10.43858295,-73.99212000
10.44114295,-73.99212000
10.44370295,-73.99212000
10.44626295,-73.99212000
10.44882295,-73.99212000
10.45138295,-73.99212000
10.45394295,-73.99212000
10.45650295,-73.99212000
10.45906295,-73.99212000
10.46162295,-73.99212000
10.46418295,-73.99212000
10.46674295,-78.46308000
10.46930295,-73.99212000
10.47186295,-73.99212000
10.47442295,-73.99212000
10.47698295,-73.99212000
10.47954295,-73.99212000
10.48210295,-73.99212000
10.48466295,-78.46308000
10.48722295,-73.99212000
10.48978295,-73.99212000
10.49234295,-73.99212000
10.49490295,-73.99212000
10.49746295,-69.50591000
10.50002295,-73.99212000
10.50258295,-73.99212000
10.50514295,-73.99212000
10.50770295,-69.50591000
10.51026295,-73.99212000
10.51282295,-73.99212000
10.51538295,-73.99212000
10.51794295,-73.99212000
10.52050295,-73.99212000
10.52306295,-69.50591000
10.52562295,-73.99212000
10.52818295,-73.99212000
10.53074295,-73.99212000
10.53330295,-73.99212000
10.53586295,-73.99212000
10.53842295,-73.99212000
10.54098295,-73.99212000
10.54354295,-73.99212000
10.54610295,-78.46308000
10.54866295,-73.99212000
10.55122295,-73.99212000
10.55378295,-73.99212000
10.55634295,-73.99212000
10.55890295,-73.99212000
10.56146295,-73.99212000
10.56402295,-73.99212000
10.56658295,-73.99212000
10.56914295,-73.99212000
10.57170295,-73.99212000
10.57426295,-73.99212000
10.57682295,-69.50591000
10.57938295,-73.99212000
10.58194295,-69.50591000
10.58450295,-69.50591000
10.58706295,-73.99212000
10.58962295,-73.99212000
10.59218295,-73.99212000
10.59474295,-69.50591000
10.59730295,-73.99212000
10.59986295,-69.50591000
10.60242295,-73.99212000
10.60498295,-73.99212000
10.60754295,-73.99212000
10.61010295,-73.99212000
10.61266295,-73.99212000
10.61522295,-73.99212000
10.61778295,-73.99212000
10.62034295,-73.99212000
10.62290295,-69.50591000
10.62546295,-69.50591000
10.62802295,-73.99212000
10.63058295,-69.50591000
10.63314295,-73.99212000
10.63570295,-73.99212000
10.63826295,-73.99212000
10.64082295,-73.99212000
10.64338295,-69.50591000
10.64594295,-69.50591000
10.64850295,-73.99212000
10.65106295,-73.99212000
10.65362295,-69.50591000
10.65618295,-73.99212000
10.65874295,-73.99212000
10.66130295,-73.99212000
10.66386295,-73.99212000
10.66642295,-73.99212000
10.66898295,-69.50591000
10.67154295,-69.50591000
10.67410295,-69.50591000
10.67666295,-69.50591000
10.67922295,-73.99212000
10.68178295,-69.50591000
10.68434295,-73.99212000
10.68690295,-69.50591000
10.68946295,-73.99212000
10.69202295,-73.99212000
10.69458295,-73.99212000
10.69714295,-73.99212000
10.69970295,-73.99212000
10.70226295,-73.99212000
10.70482295,-69.50591000
10.70738295,-73.99212000
10.70994295,-73.99212000
10.71250295,-73.99212000
10.71506295,-69.50591000
10.71762295,-69.50591000
10.72018295,-69.50591000
10.72274295,-69.50591000
10.72530295,-69.50591000
10.72786295,-69.50591000
10.73042295,-73.99212000
10.73298295,-69.50591000
10.73554294,-69.50591000
10.73810294,-69.50591000
10.74066294,-69.50591000
10.74322294,-69.50591000
10.74578294,-69.50591000
10.74834294,-69.50591000
10.75090294,-73.99212000
10.75346294,-69.50591000
10.75602294,-73.99212000
10.75858294,-69.50591000
10.76114294,-73.99212000
10.76370294,-73.99212000
10.76626294,-73.99212000
10.76882294,-69.50591000
10.77138294,-73.99212000
10.77394294,-69.50591000
10.77650294,-73.99212000
10.77906294,-73.99212000
10.78162294,-73.99212000
10.78418294,-73.99212000
10.78674294,-73.99212000
10.78930294,-69.50591000
10.79186294,-73.99212000
10.79442294,-73.99212000
10.79698294,-69.50591000
10.79954294,-73.99212000
10.80210294,-73.99212000
10.80466294,-73.99212000
10.80722294,-73.99212000
10.80978294,-73.99212000
10.81234294,-73.99212000
10.81490294,-69.50591000
10.81746294,-73.99212000
10.82002294,-73.99212000
10.82258294,-73.99212000
10.82514294,-73.99212000
10.82770294,-69.50591000
10.83026294,-73.99212000
10.83282294,-73.99212000
10.83538294,-73.99212000
10.83794294,-73.99212000
10.84050294,-73.99212000
10.84306294,-73.99212000
10.84562294,-73.99212000
10.84818294,-73.99212000
10.85074294,-73.99212000
10.85330294,-73.99212000
10.85586294,-73.99212000
10.85842294,-73.99212000
10.86098294,-73.99212000
10.86354294,-73.99212000
10.86610294,-73.99212000
10.86866294,-73.99212000
10.87122294,-73.99212000
10.87378294,-73.99212000
10.87634294,-73.99212000
10.87890294,-69.50591000
10.88146294,-69.50591000
10.88402294,-73.99212000
10.88658294,-73.99212000
10.88914294,-73.99212000
10.89170294,-78.46308000
10.89426294,-73.99212000
10.89682294,-73.99212000
10.89938294,-73.99212000
10.90194294,-73.99212000
10.90450294,-73.99212000
10.90706294,-73.99212000
10.90962294,-73.99212000
10.91218294,-73.99212000
10.91474294,-73.99212000
10.91730294,-73.99212000
10.91986294,-73.99212000
10.92242294,-73.99212000
10.92498294,-73.99212000
10.92754294,-78.46308000
10.93010294,-73.99212000
10.93266294,-73.99212000
10.93522294,-73.99212000
10.93778294,-73.99212000
10.94034294,-69.50591000
10.94290294,-73.99212000
10.94546294,-73.99212000
10.94802294,-73.99212000
10.95058294,-73.99212000
10.95314294,-73.99212000
10.95570294,-69.50591000
10.95826294,-73.99212000
10.96082294,-73.99212000
10.96338294,-73.99212000
10.96594294,-69.50591000
10.96850294,-69.50591000
10.97106294,-73.99212000
10.97362294,-73.99212000
10.97618294,-73.99212000
10.97874294,-73.99212000
10.98130294,-73.99212000
10.98386294,-73.99212000
10.98642294,-73.99212000
10.98898294,-73.99212000
10.99154294,-73.99212000
10.99410294,-73.99212000
10.99666294,-73.99212000
10.99922294,-73.99212000
11.00178294,-69.50591000
11.00434294,-73.99212000
11.00690294,-73.99212000
11.00946294,-73.99212000
11.01202294,-73.99212000
11.01458294,-73.99212000
11.01714294,-69.50591000
11.01970294,-73.99212000
11.02226294,-73.99212000
11.02482294,-73.99212000
11.02738294,-69.50591000
11.02994294,-73.99212000
11.03250294,-69.50591000
11.03506294,-78.46308000
11.03762294,-73.99212000
11.04018294,-73.99212000
11.04274294,-69.50591000
11.04530294,-73.99212000
11.04786294,-73.99212000
11.05042294,-73.99212000
11.05298294,-73.99212000
11.05554294,-73.99212000
11.05810294,-73.99212000
11.06066294,-73.99212000
11.06322294,-73.99212000
11.06578294,-73.99212000
11.06834294,-73.99212000
11.07090294,-73.99212000
11.07346294,-73.99212000
11.07602294,-73.99212000
11.07858294,-73.99212000
11.08114294,-73.99212000
11.08370294,-73.99212000
11.08626294,-73.99212000
11.08882294,-73.99212000
11.09138294,-73.99212000
11.09394294,-73.99212000
11.09650294,-73.99212000
11.09906294,-73.99212000
11.10162294,-73.99212000
11.10418294,-73.99212000
11.10674294,-78.46308000
11.10930294,-73.99212000
11.11186294,-78.46308000
11.11442294,-73.99212000
11.11698294,-73.99212000
11.11954294,-73.99212000
11.12210294,-78.46308000
11.12466294,-73.99212000
11.12722294,-78.46308000
11.12978294,-73.99212000
11.13234294,-73.99212000
11.13490294,-73.99212000
11.13746294,-73.99212000
11.14002294,-73.99212000
11.14258294,-78.46308000
11.14514294,-78.46308000
11.14770294,-73.99212000
11.15026294,-69.50591000
11.15282294,-73.99212000
11.15538294,-78.46308000
11.15794294,-73.99212000
11.16050294,-73.99212000
11.16306294,-73.99212000
11.16562294,-78.46308000
11.16818294,-73.99212000
11.17074294,-78.46308000
11.17330294,-73.99212000
11.17586294,-73.99212000
11.17842294,-78.46308000
11.18098294,-78.46308000
11.18354294,-78.46308000
11.18610294,-73.99212000
11.18866294,-78.46308000
11.19122294,-73.99212000
11.19378294,-73.99212000
11.19634294,-78.46308000
11.19890294,-73.99212000
11.20146294,-78.46308000
11.20402294,-73.99212000
11.20658294,-73.99212000
11.20914294,-73.99212000
11.21170294,-78.46308000
11.21426294,-73.99212000
11.21682294,-73.99212000
11.21938294,-73.99212000
11.22194294,-73.99212000
11.22450294,-73.99212000
11.22706294,-73.99212000
11.22962294,-73.99212000
11.23218294,-73.99212000
11.23474294,-73.99212000
11.23730294,-73.99212000
11.23986294,-73.99212000
11.24242294,-73.99212000
11.24498294,-73.99212000
11.24754294,-73.99212000
11.25010294,-73.99212000
11.25266294,-73.99212000
11.25522294,-73.99212000
11.25778294,-78.46308000
11.26034294,-78.46308000
11.26290294,-73.99212000
11.26546294,-78.46308000
11.26802294,-73.99212000
11.27058294,-73.99212000
11.27314294,-73.99212000
11.27570294,-78.46308000
11.27826294,-73.99212000
11.28082294,-78.46308000
11.28338294,-73.99212000
11.28594294,-78.46308000
11.28850294,-73.99212000
11.29106294,-73.99212000
11.29362294,-73.99212000
11.29618294,-73.99212000
11.29874294,-78.46308000
11.30130294,-73.99212000
11.30386294,-73.99212000
11.30642294,-73.99212000
11.30898294,-78.46308000
11.31154294,-73.99212000
11.31410294,-73.99212000
11.31666294,-73.99212000
11.31922294,-73.99212000
11.32178294,-73.99212000
11.32434294,-73.99212000
11.32690294,-73.99212000
11.32946294,-78.46308000
11.33202294,-73.99212000
11.33458294,-73.99212000
11.33714294,-69.50591000
11.33970294,-78.46308000
11.34226294,-73.99212000
11.34482294,-73.99212000
11.34738294,-73.99212000
11.34994294,-73.99212000
11.35250294,-73.99212000
11.35506294,-73.99212000
11.35762294,-78.46308000
11.36018294,-78.46308000
11.36274294,-73.99212000
11.36530294,-73.99212000
11.36786294,-73.99212000
11.37042294,-73.99212000
11.37298294,-73.99212000
11.37554294,-73.99212000
11.37810294,-73.99212000
11.38066294,-73.99212000
11.38322294,-73.99212000
11.38578294,-73.99212000
11.38834294,-73.99212000
11.39090294,-73.99212000
11.39346294,-73.99212000
11.39602294,-78.46308000
11.39858294,-78.46308000
11.40114294,-73.99212000
11.40370294,-73.99212000
11.40626294,-73.99212000
11.40882294,-73.99212000
11.41138294,-78.46308000
11.41394294,-73.99212000
11.41650294,-73.99212000
11.41906294,-73.99212000
11.42162294,-73.99212000
11.42418294,-73.99212000
11.42674294,-73.99212000
11.42930294,-73.99212000
11.43186294,-73.99212000
11.43442294,-73.99212000
11.43698294,-69.50591000
11.43954294,-73.99212000
11.44210294,-73.99212000
11.44466294,-73.99212000
11.44722294,-73.99212000
11.44978294,-69.50591000
11.45234294,-73.99212000
11.45490294,-73.99212000
11.45746294,-73.99212000
11.46002294,-73.99212000
11.46258294,-73.99212000
11.46514294,-73.99212000
11.46770294,-73.99212000
11.47026294,-73.99212000
11.47282294,-73.99212000
11.47538294,-73.99212000
11.47794294,-73.99212000
11.48050294,-69.50591000
11.48306294,-78.46308000
11.48562294,-73.99212000
11.48818294,-73.99212000
11.49074294,-73.99212000
11.49330294,-73.99212000
11.49586294,-73.99212000
11.49842294,-73.99212000
11.50098294,-73.99212000
11.50354294,-73.99212000
11.50610294,-73.99212000
11.50866294,-69.50591000
11.51122294,-73.99212000
11.51378294,-73.99212000
11.51634294,-73.99212000
11.51890294,-73.99212000
11.52146294,-73.99212000
11.52402294,-73.99212000
11.52658294,-73.99212000
11.52914294,-78.46308000
11.53170294,-78.46308000
11.53426294,-73.99212000
11.53682294,-73.99212000
11.53938294,-73.99212000
11.54194294,-73.99212000
11.54450294,-73.99212000
11.54706294,-78.46308000
11.54962294,-73.99212000
11.55218294,-78.46308000
11.55474294,-73.99212000
11.55730294,-73.99212000
11.55986294,-73.99212000
11.56242294,-78.46308000
11.56498294,-73.99212000
11.56754294,-73.99212000
11.57010294,-78.46308000
11.57266294,-78.46308000
11.57522294,-73.99212000
11.57778294,-73.99212000
11.58034294,-73.99212000
11.58290294,-73.99212000
11.58546294,-73.99212000
11.58802294,-73.99212000
11.59058294,-78.46308000
11.59314294,-73.99212000
11.59570294,-73.99212000
11.59826294,-78.46308000
11.60082294,-78.46308000
11.60338294,-78.46308000
11.60594294,-78.46308000
11.60850294,-78.46308000
11.61106294,-73.99212000
11.61362294,-73.99212000
11.61618294,-73.99212000
11.61874294,-78.46308000
11.62130294,-73.99212000
11.62386294,-78.46308000
11.62642294,-73.99212000
11.62898294,-73.99212000
11.63154294,-73.99212000
11.63410294,-73.99212000
11.63666294,-73.99212000
11.63922294,-78.46308000
11.64178294,-73.99212000
11.64434294,-73.99212000
11.64690294,-73.99212000
11.64946294,-73.99212000
11.65202294,-78.46308000
11.65458294,-73.99212000
11.65714294,-73.99212000
11.65970294,-78.46308000
11.66226294,-78.46308000
11.66482294,-78.46308000
11.66738294,-73.99212000
11.66994294,-73.99212000
11.67250294,-73.99212000
11.67506294,-73.99212000
11.67762294,-73.99212000
11.68018294,-78.46308000
11.68274294,-78.46308000
11.68530294,-73.99212000
11.68786294,-73.99212000
11.69042294,-78.46308000
11.69298294,-73.99212000
11.69554294,-69.50591000
11.69810294,-73.99212000
11.70066294,-73.99212000
11.70322294,-73.99212000
11.70578294,-73.99212000
11.70834294,-73.99212000
11.71090294,-73.99212000
11.71346294,-73.99212000
11.71602294,-73.99212000
11.71858294,-73.99212000
11.72114294,-73.99212000
11.72370294,-78.46308000
11.72626294,-73.99212000
11.72882294,-73.99212000
11.73138294,-69.50591000
11.73394294,-73.99212000
11.73650294,-73.99212000
11.73906294,-73.99212000
11.74162294,-73.99212000
11.74418294,-73.99212000
11.74674294,-73.99212000
11.74930294,-73.99212000
11.75186294,-73.99212000
11.75442294,-73.99212000
11.75698294,-73.99212000
11.75954294,-69.50591000
11.76210294,-78.46308000
11.76466294,-73.99212000
11.76722294,-73.99212000
11.76978294,-69.50591000
11.77234294,-78.46308000
11.77490294,-73.99212000
11.77746294,-73.99212000
11.78002294,-69.50591000
11.78258294,-73.99212000
11.78514294,-73.99212000
11.78770294,-78.46308000
11.79026294,-78.46308000
11.79282294,-73.99212000
11.79538294,-73.99212000
11.79794294,-73.99212000
11.80050294,-73.99212000
11.80306294,-73.99212000
11.80562294,-69.50591000
11.80818294,-73.99212000
11.81074294,-73.99212000
11.81330294,-73.99212000
11.81586294,-73.99212000
11.81842294,-73.99212000
11.82098294,-73.99212000
11.82354294,-73.99212000
11.82610294,-73.99212000
11.82866294,-73.99212000
11.83122294,-73.99212000
11.83378294,-73.99212000
11.83634294,-73.99212000
11.83890294,-73.99212000
11.84146294,-73.99212000
11.84402294,-73.99212000
11.84658294,-69.50591000
11.84914294,-73.99212000
11.85170294,-73.99212000
11.85426294,-73.99212000
11.85682294,-73.99212000
11.85938294,-73.99212000
11.86194294,-73.99212000
11.86450294,-73.99212000
11.86706294,-73.99212000
11.86962294,-73.99212000
11.87218294,-73.99212000
11.87474294,-73.99212000
11.87730294,-73.99212000
11.87986294,-73.99212000
11.88242294,-73.99212000
11.88498294,-73.99212000
11.88754294,-73.99212000
11.89010294,-73.99212000
11.89266294,-73.99212000
11.89522294,-78.46308000
11.89778294,-73.99212000
11.90034294,-73.99212000
11.90290294,-78.46308000
11.90546294,-73.99212000
11.90802294,-73.99212000
11.91058294,-73.99212000
11.91314294,-73.99212000
11.91570294,-73.99212000
11.91826294,-78.46308000
11.92082294,-73.99212000
11.92338294,-73.99212000
11.92594294,-73.99212000
11.92850294,-73.99212000
11.93106294,-73.99212000
11.93362294,-73.99212000
11.93618294,-73.99212000
11.93874294,-73.99212000
11.94130294,-73.99212000
11.94386294,-73.99212000
11.94642294,-73.99212000
11.94898294,-73.99212000
11.95154294,-73.99212000
11.95410294,-73.99212000
11.95666294,-73.99212000
11.95922294,-73.99212000
11.96178294,-69.50591000
11.96434294,-73.99212000
11.96690294,-73.99212000
11.96946294,-73.99212000
11.97202294,-73.99212000
11.97458294,-73.99212000
11.97714294,-73.99212000
11.97970294,-69.50591000
11.98226294,-73.99212000
11.98482294,-73.99212000
11.98738294,-73.99212000
11.98994294,-78.46308000
11.99250294,-73.99212000
11.99506294,-73.99212000
11.99762294,-73.99212000
12.00018294,-69.50591000
12.00274294,-73.99212000
12.00530294,-73.99212000
12.00786294,-73.99212000
12.01042294,-69.50591000
12.01298294,-73.99212000
12.01554294,-69.50591000
12.01810294,-73.99212000
12.02066294,-73.99212000
12.02322294,-69.50591000
12.02578294,-73.99212000
12.02834294,-73.99212000
12.03090294,-73.99212000
12.03346294,-73.99212000
12.03602294,-69.50591000
12.03858294,-73.99212000
12.04114294,-69.50591000
12.04370294,-69.50591000
12.04626294,-69.50591000
12.04882294,-69.50591000
12.05138294,-69.50591000
12.05394294,-73.99212000
12.05650294,-69.50591000
12.05906294,-69.50591000
12.06162294,-69.50591000
12.06418294,-69.50591000
12.06674294,-69.50591000
12.06930294,-69.50591000
12.07186294,-69.50591000
12.07442294,-69.50591000
12.07698294,-73.99212000
12.07954294,-69.50591000
12.08210294,-69.50591000
12.08466294,-69.50591000
12.08722294,-69.50591000
12.08978294,-73.99212000
12.09234294,-73.99212000
12.09490294,-73.99212000
12.09746294,-69.50591000
12.10002294,-69.50591000
12.10258294,-73.99212000
12.10514294,-69.50591000
12.10770294,-69.50591000
12.11026294,-69.50591000
12.11282294,-69.50591000
12.11538294,-73.99212000
12.11794294,-69.50591000
12.12050294,-69.50591000
12.12306294,-69.50591000
12.12562294,-69.50591000
12.12818294,-73.99212000
12.13074294,-73.99212000
12.13330294,-73.99212000
12.13586294,-73.99212000
12.13842294,-69.50591000
12.14098294,-73.99212000
12.14354294,-73.99212000
12.14610294,-69.50591000
12.14866294,-73.99212000
12.15122294,-69.50591000
12.15378294,-69.50591000
12.15634294,-69.50591000
12.15890294,-69.50591000
12.16146294,-73.99212000
12.16402294,-73.99212000
12.16658294,-69.50591000
12.16914294,-73.99212000
12.17170294,-73.99212000
12.17426294,-73.99212000
12.17682294,-73.99212000
12.17938294,-69.50591000
12.18194294,-73.99212000
12.18450294,-69.50591000
12.18706294,-69.50591000
12.18962294,-73.99212000
12.19218294,-69.50591000
12.19474294,-69.50591000
12.19730294,-69.50591000
12.19986294,-69.50591000
12.20242294,-69.50591000
12.20498294,-69.50591000
12.20754294,-73.99212000
12.21010294,-73.99212000
12.21266294,-73.99212000
12.21522294,-73.99212000
12.21778294,-69.50591000
12.22034294,-73.99212000
12.22290294,-69.50591000
12.22546294,-73.99212000
12.22802294,-73.99212000
12.23058294,-69.50591000
12.23314294,-73.99212000
12.23570294,-69.50591000
12.23826294,-73.99212000
12.24082294,-73.99212000
12.24338294,-69.50591000
12.24594294,-69.50591000
12.24850294,-69.50591000
12.25106294,-73.99212000
12.25362294,-69.50591000
12.25618294,-73.99212000
12.25874294,-69.50591000
12.26130294,-69.50591000
12.26386294,-73.99212000
12.26642294,-73.99212000
12.26898294,-69.50591000
12.27154294,-69.50591000
12.27410294,-73.99212000
12.27666294,-73.99212000
12.27922294,-73.99212000
12.28178294,-73.99212000
12.28434294,-69.50591000
12.28690294,-73.99212000
12.28946294,-73.99212000
12.29202294,-73.99212000
12.29458294,-73.99212000
12.29714294,-69.50591000
12.29970294,-73.99212000
12.30226294,-69.50591000
12.30482294,-69.50591000
12.30738294,-73.99212000
12.30994294,-69.50591000
12.31250294,-73.99212000
12.31506294,-73.99212000
12.31762294,-69.50591000
12.32018294,-69.50591000
12.32274294,-69.50591000
12.32530294,-69.50591000
12.32786294,-69.50591000
12.33042294,-69.50591000
12.33298294,-69.50591000
12.33554294,-69.50591000
12.33810294,-69.50591000
12.34066294,-73.99212000
12.34322294,-69.50591000
12.34578294,-69.50591000
12.34834294,-69.50591000
12.35090294,-73.99212000
12.35346294,-69.50591000
12.35602294,-69.50591000
12.35858294,-69.50591000
12.36114294,-73.99212000
12.36370294,-73.99212000
12.36626294,-69.50591000
12.36882294,-73.99212000
12.37138294,-69.50591000
12.37394294,-69.50591000
12.37650294,-69.50591000
12.37906293,-69.50591000
12.38162293,-73.99212000
12.38418293,-73.99212000
12.38674293,-69.50591000
12.38930293,-69.50591000
12.39186293,-69.50591000
12.39442293,-69.50591000
12.39698293,-73.99212000
12.39954293,-69.50591000
12.40210293,-73.99212000
12.40466293,-69.50591000
12.40722293,-73.99212000
12.40978293,-73.99212000
12.41234293,-73.99212000
12.41490293,-69.50591000
12.41746293,-69.50591000
12.42002293,-73.99212000
12.42258293,-69.50591000
12.42514293,-73.99212000
12.42770293,-69.50591000
12.43026293,-69.50591000
12.43282293,-73.99212000
12.43538293,-69.50591000
12.43794293,-69.50591000
12.44050293,-73.99212000
12.44306293,-73.99212000
12.44562293,-73.99212000
12.44818293,-73.99212000
12.45074293,-73.99212000
12.45330293,-73.99212000
12.45586293,-73.99212000
12.45842293,-73.99212000
12.46098293,-73.99212000
12.46354293,-73.99212000
12.46610293,-73.99212000
12.46866293,-69.50591000
12.47122293,-73.99212000
12.47378293,-73.99212000
12.47634293,-69.50591000
12.47890293,-69.50591000
12.48146293,-73.99212000
12.48402293,-69.50591000
12.48658293,-69.50591000
12.48914293,-69.50591000
12.49170293,-73.99212000
12.49426293,-73.99212000
12.49682293,-73.99212000
12.49938293,-73.99212000
12.50194293,-73.99212000
12.50450293,-73.99212000
12.50706293,-69.50591000
12.50962293,-73.99212000
12.51218293,-69.50591000
12.51474293,-73.99212000
12.51730293,-69.50591000
12.51986293,-69.50591000
12.52242293,-69.50591000
12.52498293,-69.50591000
12.52754293,-73.99212000
12.53010293,-73.99212000
12.53266293,-73.99212000
12.53522293,-73.99212000
12.53778293,-73.99212000
12.54034293,-69.50591000
12.54290293,-73.99212000
12.54546293,-73.99212000
12.54802293,-78.46308000
12.55058293,-73.99212000
12.55314293,-73.99212000
12.55570293,-73.99212000
12.55826293,-69.50591000
12.56082293,-73.99212000
12.56338293,-73.99212000
12.56594293,-73.99212000
12.56850293,-73.99212000
12.57106293,-73.99212000
12.57362293,-73.99212000
12.57618293,-73.99212000
12.57874293,-73.99212000
12.58130293,-69.50591000
12.58386293,-73.99212000
12.58642293,-73.99212000
12.58898293,-73.99212000
12.59154293,-73.99212000
12.59410293,-73.99212000
12.59666293,-73.99212000
12.59922293,-73.99212000
12.60178293,-73.99212000
12.60434293,-73.99212000
12.60690293,-73.99212000
12.60946293,-73.99212000
12.61202293,-73.99212000
12.61458293,-73.99212000
12.61714293,-73.99212000
12.61970293,-73.99212000
12.62226293,-73.99212000
12.62482293,-73.99212000
12.62738293,-73.99212000
12.62994293,-69.50591000
12.63250293,-73.99212000
12.63506293,-69.50591000
12.63762293,-69.50591000
12.64018293,-73.99212000
12.64274293,-73.99212000
12.64530293,-73.99212000
12.64786293,-73.99212000
12.65042293,-69.50591000
12.65298293,-73.99212000
12.65554293,-73.99212000
12.65810293,-73.99212000
12.66066293,-69.50591000
12.66322293,-73.99212000
12.66578293,-73.99212000
12.66834293,-73.99212000
12.67090293,-73.99212000
12.67346293,-73.99212000
12.67602293,-73.99212000
12.67858293,-73.99212000
12.68114293,-73.99212000
12.68370293,-73.99212000
12.68626293,-78.46308000
12.68882293,-73.99212000
12.69138293,-69.50591000
12.69394293,-73.99212000
12.69650293,-73.99212000
12.69906293,-73.99212000
12.70162293,-73.99212000
12.70418293,-73.99212000
12.70674293,-73.99212000
12.70930293,-69.50591000
12.71186293,-69.50591000
12.71442293,-73.99212000
12.71698293,-73.99212000
12.71954293,-69.50591000
12.72210293,-73.99212000
12.72466293,-73.99212000
12.72722293,-73.99212000
12.72978293,-73.99212000
12.73234293,-73.99212000
12.73490293,-73.99212000
12.73746293,-73.99212000
12.74002293,-73.99212000
12.74258293,-69.50591000
12.74514293,-73.99212000
12.74770293,-73.99212000
12.75026293,-73.99212000
12.75282293,-73.99212000
12.75538293,-73.99212000
12.75794293,-69.50591000
12.76050293,-73.99212000
12.76306293,-73.99212000
12.76562293,-73.99212000
12.76818293,-73.99212000
12.77074293,-73.99212000
12.77330293,-73.99212000
12.77586293,-73.99212000
12.77842293,-73.99212000
12.78098293,-69.50591000
12.78354293,-73.99212000
12.78610293,-73.99212000
12.78866293,-73.99212000
12.79122293,-73.99212000
12.79378293,-73.99212000
12.79634293,-69.50591000
12.79890293,-73.99212000
12.80146293,-69.50591000
12.80402293,-73.99212000
12.80658293,-73.99212000
12.80914293,-73.99212000
12.81170293,-73.99212000
12.81426293,-78.46308000
12.81682293,-73.99212000
12.81938293,-73.99212000
12.82194293,-73.99212000
12.82450293,-73.99212000
12.82706293,-73.99212000
12.82962293,-73.99212000
12.83218293,-78.46308000
12.83474293,-73.99212000
12.83730293,-73.99212000
12.83986293,-73.99212000
12.84242293,-73.99212000
12.84498293,-73.99212000
12.84754293,-73.99212000
12.85010293,-73.99212000
12.85266293,-73.99212000
12.85522293,-69.50591000
12.85778293,-69.50591000
12.86034293,-73.99212000
12.86290293,-73.99212000
12.86546293,-73.99212000
12.86802293,-73.99212000
12.87058293,-73.99212000
12.87314293,-73.99212000
12.87570293,-73.99212000
12.87826293,-69.50591000
12.88082293,-73.99212000
12.88338293,-73.99212000
12.88594293,-73.99212000
12.88850293,-73.99212000
12.89106293,-69.50591000
12.89362293,-73.99212000
12.89618293,-73.99212000
12.89874293,-69.50591000
12.90130293,-69.50591000
12.90386293,-73.99212000
12.90642293,-73.99212000
12.90898293,-73.99212000
12.91154293,-69.50591000
12.91410293,-73.99212000
12.91666293,-73.99212000
12.91922293,-73.99212000
12.92178293,-69.50591000
12.92434293,-69.50591000
12.92690293,-69.50591000
12.92946293,-69.50591000
12.93202293,-69.50591000
12.93458293,-69.50591000
12.93714293,-73.99212000
12.93970293,-69.50591000
12.94226293,-69.50591000
12.94482293,-69.50591000
12.94738293,-73.99212000
12.94994293,-69.50591000
12.95250293,-73.99212000
12.95506293,-69.50591000
12.95762293,-69.50591000
12.96018293,-73.99212000
12.96274293,-78.46308000
12.96530293,-69.50591000
12.96786293,-73.99212000
12.97042293,-73.99212000
12.97298293,-69.50591000
12.97554293,-69.50591000
12.97810293,-73.99212000
12.98066293,-73.99212000
12.98322293,-69.50591000
12.98578293,-69.50591000
12.98834293,-73.99212000
12.99090293,-73.99212000
12.99346293,-69.50591000
12.99602293,-73.99212000
12.99858293,-73.99212000
13.00114293,-73.99212000
13.00370293,-73.99212000
13.00626293,-69.50591000
13.00882293,-73.99212000
13.01138293,-73.99212000
13.01394293,-73.99212000
13.01650293,-73.99212000
13.01906293,-73.99212000
13.02162293,-73.99212000
13.02418293,-73.99212000
13.02674293,-73.99212000
13.02930293,-73.99212000
13.03186293,-69.50591000
13.03442293,-69.50591000
13.03698293,-73.99212000
13.03954293,-78.46308000
13.04210293,-69.50591000
13.04466293,-73.99212000
13.04722293,-73.99212000
13.04978293,-73.99212000
13.05234293,-73.99212000
13.05490293,-73.99212000
13.05746293,-69.50591000
13.06002293,-73.99212000
13.06258293,-73.99212000
13.06514293,-69.50591000
13.06770293,-73.99212000
13.07026293,-73.99212000
13.07282293,-73.99212000
13.07538293,-73.99212000
13.07794293,-73.99212000
13.08050293,-73.99212000
13.08306293,-73.99212000
13.08562293,-73.99212000
13.08818293,-73.99212000
13.09074293,-73.99212000
13.09330293,-73.99212000
13.09586293,-73.99212000
13.09842293,-73.99212000
13.10098293,-73.99212000
13.10354293,-73.99212000
13.10610293,-73.99212000
13.10866293,-78.46308000
13.11122293,-73.99212000
13.11378293,-69.50591000
13.11634293,-73.99212000
13.11890293,-73.99212000
13.12146293,-69.50591000
13.12402293,-73.99212000
13.12658293,-73.99212000
13.12914293,-73.99212000
13.13170293,-73.99212000
13.13426293,-73.99212000
13.13682293,-73.99212000
13.13938293,-73.99212000
13.14194293,-73.99212000
13.14450293,-73.99212000
13.14706293,-73.99212000
13.14962293,-73.99212000
13.15218293,-73.99212000
13.15474293,-73.99212000
13.15730293,-73.99212000
13.15986293,-73.99212000
13.16242293,-73.99212000
13.16498293,-78.46308000
13.16754293,-73.99212000
13.17010293,-73.99212000
13.17266293,-73.99212000
13.17522293,-73.99212000
13.17778293,-73.99212000
13.18034293,-73.99212000
13.18290293,-73.99212000
13.18546293,-73.99212000
13.18802293,-73.99212000
13.19058293,-78.46308000
13.19314293,-73.99212000
13.19570293,-73.99212000
13.19826293,-73.99212000
13.20082293,-73.99212000
13.20338293,-73.99212000
13.20594293,-73.99212000
13.20850293,-73.99212000
13.21106293,-73.99212000
13.21362293,-73.99212000
13.21618293,-73.99212000
13.21874293,-78.46308000
13.22130293,-73.99212000
13.22386293,-73.99212000
13.22642293,-73.99212000
13.22898293,-73.99212000
13.23154293,-73.99212000
13.23410293,-73.99212000
13.23666293,-73.99212000
13.23922293,-73.99212000
13.24178293,-73.99212000
13.24434293,-73.99212000
13.24690293,-73.99212000
13.24946293,-73.99212000
13.25202293,-73.99212000
13.25458293,-73.99212000
13.25714293,-78.46308000
13.25970293,-73.99212000
13.26226293,-73.99212000
13.26482293,-73.99212000
13.26738293,-73.99212000
13.26994293,-73.99212000
13.27250293,-73.99212000
13.27506293,-73.99212000
13.27762293,-73.99212000
13.28018293,-73.99212000
13.28274293,-73.99212000
13.28530293,-73.99212000
13.28786293,-73.99212000
13.29042293,-69.50591000
13.29298293,-73.99212000
13.29554293,-73.99212000
13.29810293,-73.99212000
13.30066293,-73.99212000
13.30322293,-73.99212000
13.30578293,-73.99212000
13.30834293,-69.50591000
13.31090293,-73.99212000
13.31346293,-73.99212000
13.31602293,-73.99212000
13.31858293,-73.99212000
13.32114293,-73.99212000
13.32370293,-73.99212000
13.32626293,-73.99212000
13.32882293,-73.99212000
13.33138293,-73.99212000
13.33394293,-73.99212000
13.33650293,-73.99212000
13.33906293,-69.50591000
13.34162293,-73.99212000
13.34418293,-73.99212000
13.34674293,-69.50591000
13.34930293,-73.99212000
13.35186293,-69.50591000
13.35442293,-69.50591000
13.35698293,-73.99212000
13.35954293,-73.99212000
13.36210293,-73.99212000
13.36466293,-73.99212000
13.36722293,-73.99212000
13.36978293,-73.99212000
13.37234293,-69.50591000
13.37490293,-69.50591000
13.37746293,-69.50591000
13.38002293,-73.99212000
13.38258293,-69.50591000
13.38514293,-73.99212000
13.38770293,-69.50591000
13.39026293,-69.50591000
13.39282293,-73.99212000
13.39538293,-73.99212000
13.39794293,-73.99212000
13.40050293,-73.99212000
13.40306293,-73.99212000
13.40562293,-73.99212000
13.40818293,-73.99212000
13.41074293,-73.99212000
13.41330293,-78.46308000
13.41586293,-73.99212000
13.41842293,-73.99212000
13.42098293,-73.99212000
13.42354293,-73.99212000
13.42610293,-73.99212000
13.42866293,-73.99212000
13.43122293,-73.99212000
13.43378293,-73.99212000
13.43634293,-73.99212000
13.43890293,-73.99212000
13.44146293,-73.99212000
13.44402293,-73.99212000
13.44658293,-73.99212000
13.44914293,-73.99212000
13.45170293,-73.99212000
13.45426293,-73.99212000
13.45682293,-73.99212000
13.45938293,-73.99212000
13.46194293,-73.99212000
13.46450293,-73.99212000
13.46706293,-73.99212000
13.46962293,-73.99212000
13.47218293,-73.99212000
13.47474293,-78.46308000
13.47730293,-73.99212000
13.47986293,-73.99212000
13.48242293,-73.99212000
13.48498293,-73.99212000
13.48754293,-78.46308000
13.49010293,-73.99212000
13.49266293,-73.99212000
13.49522293,-73.99212000
13.49778293,-73.99212000
13.50034293,-73.99212000
13.50290293,-73.99212000
13.50546293,-73.99212000
13.50802293,-78.46308000
13.51058293,-69.50591000
13.51314293,-78.46308000
13.51570293,-73.99212000
13.51826293,-73.99212000
13.52082293,-73.99212000
13.52338293,-73.99212000
13.52594293,-73.99212000
13.52850293,-73.99212000
13.53106293,-73.99212000
13.53362293,-73.99212000
13.53618293,-73.99212000
13.53874293,-78.46308000
13.54130293,-73.99212000
13.54386293,-73.99212000
13.54642293,-73.99212000
13.54898293,-73.99212000
13.55154293,-69.50591000
13.55410293,-69.50591000
13.55666293,-73.99212000
13.55922293,-73.99212000
13.56178293,-69.50591000
13.56434293,-73.99212000
13.56690293,-73.99212000
13.56946293,-73.99212000
13.57202293,-73.99212000
13.57458293,-78.46308000
13.57714293,-73.99212000
13.57970293,-73.99212000
13.58226293,-73.99212000
13.58482293,-73.99212000
13.58738293,-73.99212000
13.58994293,-69.50591000
13.59250293,-73.99212000
13.59506293,-73.99212000
13.59762293,-73.99212000
13.60018293,-73.99212000
13.60274293,-73.99212000
13.60530293,-73.99212000
13.60786293,-78.46308000
13.61042293,-73.99212000
13.61298293,-73.99212000
13.61554293,-73.99212000
13.61810293,-73.99212000
13.62066293,-73.99212000
13.62322293,-73.99212000
13.62578293,-73.99212000
13.62834293,-69.50591000
13.63090293,-73.99212000
13.63346293,-73.99212000
13.63602293,-73.99212000
13.63858293,-69.50591000
13.64114293,-69.50591000
13.64370293,-69.50591000
13.64626293,-73.99212000
13.64882293,-73.99212000
13.65138293,-73.99212000
13.65394293,-73.99212000
13.65650293,-69.50591000
13.65906293,-73.99212000
13.66162293,-73.99212000
13.66418293,-73.99212000
13.66674293,-73.99212000
13.66930293,-73.99212000
13.67186293,-73.99212000
13.67442293,-69.50591000
13.67698293,-69.50591000
13.67954293,-73.99212000
13.68210293,-73.99212000
13.68466293,-73.99212000
13.68722293,-73.99212000
13.68978293,-73.99212000
13.69234293,-73.99212000
13.69490293,-73.99212000
13.69746293,-69.50591000
13.70002293,-73.99212000
13.70258293,-69.50591000
13.70514293,-69.50591000
13.70770293,-73.99212000
13.71026293,-73.99212000
13.71282293,-73.99212000
13.71538293,-69.50591000
13.71794293,-73.99212000
13.72050293,-73.99212000
13.72306293,-73.99212000
13.72562293,-73.99212000
13.72818293,-73.99212000
13.73074293,-73.99212000
13.73330293,-73.99212000
13.73586293,-69.50591000
13.73842293,-69.50591000
13.74098293,-73.99212000
13.74354293,-73.99212000
13.74610293,-73.99212000
13.74866293,-73.99212000
13.75122293,-73.99212000
13.75378293,-73.99212000
13.75634293,-73.99212000
13.75890293,-73.99212000
13.76146293,-69.50591000
13.76402293,-69.50591000
13.76658293,-73.99212000
13.76914293,-73.99212000
13.77170293,-73.99212000
13.77426293,-73.99212000
13.77682293,-73.99212000
13.77938293,-69.50591000
13.78194293,-73.99212000
13.78450293,-73.99212000
13.78706293,-73.99212000
13.78962293,-73.99212000
13.79218293,-73.99212000
13.79474293,-73.99212000
13.79730293,-73.99212000
13.79986293,-69.50591000
13.80242293,-73.99212000
13.80498293,-73.99212000
13.80754293,-73.99212000
13.81010293,-73.99212000
13.81266293,-73.99212000
13.81522293,-73.99212000
13.81778293,-73.99212000
13.82034293,-73.99212000
13.82290293,-69.50591000
13.82546293,-73.99212000
13.82802293,-73.99212000
13.83058293,-73.99212000
13.83314293,-73.99212000
13.83570293,-73.99212000
13.83826293,-78.46308000
13.84082293,-78.46308000
13.84338293,-73.99212000
13.84594293,-73.99212000
13.84850293,-73.99212000
13.85106293,-73.99212000
13.85362293,-73.99212000
13.85618293,-78.46308000
13.85874293,-73.99212000
13.86130293,-78.46308000
13.86386293,-73.99212000
13.86642293,-73.99212000
13.86898293,-73.99212000
13.87154293,-73.99212000
13.87410293,-73.99212000
13.87666293,-78.46308000
13.87922293,-73.99212000
13.88178293,-78.46308000
13.88434293,-78.46308000
13.88690293,-73.99212000
13.88946293,-78.46308000
13.89202293,-78.46308000
13.89458293,-73.99212000
13.89714293,-78.46308000
13.89970293,-73.99212000
13.90226293,-73.99212000
13.90482293,-73.99212000
13.90738293,-78.46308000
13.90994293,-73.99212000
13.91250293,-78.46308000
13.91506293,-78.46308000
13.91762293,-78.46308000
13.92018293,-73.99212000
13.92274293,-78.46308000
13.92530293,-78.46308000
13.92786293,-78.46308000
13.93042293,-73.99212000
13.93298293,-78.46308000
13.93554293,-78.46308000
13.93810293,-78.46308000
13.94066293,-78.46308000
13.94322293,-73.99212000
13.94578293,-78.46308000
13.94834293,-73.99212000
13.95090293,-73.99212000
13.95346293,-78.46308000
13.95602293,-78.46308000
13.95858293,-73.99212000
13.96114293,-78.46308000
13.96370293,-78.46308000
13.96626293,-78.46308000
13.96882293,-78.46308000
13.97138293,-78.46308000
13.97394293,-78.46308000
13.97650293,-73.99212000
13.97906293,-78.46308000
13.98162293,-78.46308000
13.98418293,-73.99212000
13.98674293,-78.46308000
13.98930293,-78.46308000
13.99186293,-73.99212000
13.99442293,-78.46308000
13.99698293,-73.99212000
13.99954293,-78.46308000
14.00210293,-73.99212000
14.00466293,-73.99212000
14.00722293,-78.46308000
14.00978293,-78.46308000
14.01234293,-73.99212000
14.01490293,-78.46308000
14.01746293,-78.46308000
14.02002293,-73.99212000
14.02258293,-73.99212000
14.02514292,-73.99212000
14.02770292,-78.46308000
14.03026292,-73.99212000
14.03282292,-78.46308000
14.03538292,-73.99212000
14.03794292,-73.99212000
14.04050292,-73.99212000
14.04306292,-73.99212000
14.04562292,-73.99212000
14.04818292,-73.99212000
14.05074292,-78.46308000
14.05330292,-78.46308000
14.05586292,-73.99212000
14.05842292,-78.46308000
14.06098292,-78.46308000
14.06354292,-78.46308000
14.06610292,-73.99212000
14.06866292,-73.99212000
14.07122292,-78.46308000
14.07378292,-78.46308000
14.07634292,-73.99212000
14.07890292,-73.99212000
14.08146292,-73.99212000
14.08402292,-73.99212000
14.08658292,-78.46308000
14.08914292,-73.99212000
14.09170292,-78.46308000
14.09426292,-78.46308000
14.09682292,-73.99212000
14.09938292,-78.46308000
14.10194292,-73.99212000
14.10450292,-78.46308000
14.10706292,-73.99212000
14.10962292,-73.99212000
14.11218292,-73.99212000
14.11474292,-78.46308000
14.11730292,-78.46308000
14.11986292,-78.46308000
14.12242292,-78.46308000
14.12498292,-78.46308000
14.12754292,-78.46308000
14.13010292,-78.46308000
14.13266292,-73.99212000
14.13522292,-78.46308000
14.13778292,-78.46308000
14.14034292,-78.46308000
14.14290292,-73.99212000
14.14546292,-78.46308000
14.14802292,-78.46308000
14.15058292,-78.46308000
14.15314292,-78.46308000
14.15570292,-78.46308000
14.15826292,-78.46308000
14.16082292,-78.46308000
14.16338292,-73.99212000
14.16594292,-78.46308000
14.16850292,-78.46308000
14.17106292,-78.46308000
14.17362292,-78.46308000
14.17618292,-78.46308000
14.17874292,-73.99212000
14.18130292,-78.46308000
14.18386292,-78.46308000
14.18642292,-78.46308000
14.18898292,-78.46308000
14.19154292,-78.46308000
14.19410292,-78.46308000
14.19666292,-73.99212000
14.19922292,-78.46308000
14.20178292,-78.46308000
14.20434292,-78.46308000
14.20690292,-73.99212000
14.20946292,-73.99212000
14.21202292,-73.99212000
14.21458292,-78.46308000
14.21714292,-78.46308000
14.21970292,-78.46308000
14.22226292,-78.46308000
14.22482292,-78.46308000
14.22738292,-73.99212000
14.22994292,-78.46308000
14.23250292,-73.99212000
14.23506292,-73.99212000
14.23762292,-73.99212000
14.24018292,-78.46308000
14.24274292,-73.99212000
14.24530292,-78.46308000
14.24786292,-73.99212000
14.25042292,-73.99212000
14.25298292,-73.99212000
14.25554292,-73.99212000
14.25810292,-78.46308000
14.26066292,-73.99212000
14.26322292,-73.99212000
14.26578292,-73.99212000
14.26834292,-78.46308000
14.27090292,-73.99212000
14.27346292,-73.99212000
14.27602292,-73.99212000
14.27858292,-78.46308000
14.28114292,-73.99212000
14.28370292,-73.99212000
14.28626292,-73.99212000
14.28882292,-78.46308000
14.29138292,-73.99212000
14.29394292,-73.99212000
14.29650292,-73.99212000
14.29906292,-78.46308000
14.30162292,-73.99212000
14.30418292,-78.46308000
14.30674292,-78.46308000
14.30930292,-73.99212000
14.31186292,-78.46308000
14.31442292,-78.46308000
14.31698292,-78.46308000
14.31954292,-73.99212000
14.32210292,-73.99212000
14.32466292,-73.99212000
14.32722292,-73.99212000
14.32978292,-73.99212000
14.33234292,-73.99212000
14.33490292,-73.99212000
14.33746292,-73.99212000
14.34002292,-73.99212000
14.34258292,-73.99212000
14.34514292,-73.99212000
14.34770292,-73.99212000
14.35026292,-73.99212000
14.35282292,-78.46308000
14.35538292,-73.99212000
14.35794292,-78.46308000
14.36050292,-73.99212000
14.36306292,-73.99212000
14.36562292,-73.99212000
14.36818292,-78.46308000
14.37074292,-73.99212000
14.37330292,-73.99212000
14.37586292,-73.99212000
14.37842292,-73.99212000
14.38098292,-73.99212000
14.38354292,-73.99212000
14.38610292,-73.99212000
14.38866292,-78.46308000
14.39122292,-73.99212000
14.39378292,-73.99212000
14.39634292,-73.99212000
14.39890292,-73.99212000
14.40146292,-78.46308000
14.40402292,-73.99212000
14.40658292,-78.46308000
14.40914292,-78.46308000
14.41170292,-73.99212000
14.41426292,-73.99212000
14.41682292,-78.46308000
14.41938292,-78.46308000
14.42194292,-78.46308000
14.42450292,-73.99212000
14.42706292,-73.99212000
14.42962292,-73.99212000
14.43218292,-78.46308000
14.43474292,-78.46308000
14.43730292,-78.46308000
14.43986292,-78.46308000
14.44242292,-73.99212000
14.44498292,-78.46308000
14.44754292,-73.99212000
14.45010292,-73.99212000
14.45266292,-73.99212000
14.45522292,-78.46308000
14.45778292,-78.46308000
14.46034292,-73.99212000
14.46290292,-73.99212000
14.46546292,-78.46308000
14.46802292,-78.46308000
14.47058292,-78.46308000
14.47314292,-78.46308000
14.47570292,-78.46308000
14.47826292,-73.99212000
14.48082292,-73.99212000
14.48338292,-73.99212000
14.48594292,-78.46308000
14.48850292,-78.46308000
14.49106292,-78.46308000
14.49362292,-78.46308000
14.49618292,-78.46308000
14.49874292,-78.46308000
14.50130292,-78.46308000
14.50386292,-78.46308000
14.50642292,-78.46308000
14.50898292,-78.46308000
14.51154292,-73.99212000
14.51410292,-73.99212000
14.51666292,-73.99212000
14.51922292,-78.46308000
14.52178292,-73.99212000
14.52434292,-78.46308000
14.52690292,-73.99212000
14.52946292,-73.99212000
14.53202292,-73.99212000
14.53458292,-73.99212000
14.53714292,-78.46308000
14.53970292,-73.99212000
14.54226292,-73.99212000
14.54482292,-73.99212000
14.54738292,-73.99212000
14.54994292,-73.99212000
14.55250292,-73.99212000
14.55506292,-73.99212000
14.55762292,-73.99212000
14.56018292,-78.46308000
14.56274292,-73.99212000
14.56530292,-73.99212000
14.56786292,-73.99212000
14.57042292,-78.46308000
14.57298292,-73.99212000
14.57554292,-73.99212000
14.57810292,-73.99212000
14.58066292,-78.46308000
14.58322292,-78.46308000
14.58578292,-73.99212000
14.58834292,-73.99212000
14.59090292,-78.46308000
14.59346292,-73.99212000
14.59602292,-73.99212000
14.59858292,-73.99212000
14.60114292,-73.99212000
14.60370292,-73.99212000
14.60626292,-78.46308000
14.60882292,-78.46308000
14.61138292,-73.99212000
14.61394292,-78.46308000
14.61650292,-73.99212000
14.61906292,-73.99212000
14.62162292,-73.99212000
14.62418292,-73.99212000
14.62674292,-73.99212000
14.62930292,-73.99212000
14.63186292,-73.99212000
14.63442292,-78.46308000
14.63698292,-73.99212000
14.63954292,-78.46308000
14.64210292,-73.99212000
14.64466292,-73.99212000
14.64722292,-73.99212000
14.64978292,-73.99212000
14.65234292,-69.50591000
14.65490292,-73.99212000
14.65746292,-73.99212000
14.66002292,-73.99212000
14.66258292,-73.99212000
14.66514292,-69.50591000
14.66770292,-73.99212000
14.67026292,-73.99212000
14.67282292,-73.99212000
14.67538292,-73.99212000
14.67794292,-69.50591000
14.68050292,-73.99212000
14.68306292,-73.99212000
14.68562292,-73.99212000
14.68818292,-69.50591000
14.69074292,-73.99212000
14.69330292,-73.99212000
14.69586292,-73.99212000
14.69842292,-73.99212000
14.70098292,-69.50591000
14.70354292,-73.99212000
14.70610292,-73.99212000
14.70866292,-69.50591000
14.71122292,-69.50591000
14.71378292,-73.99212000
14.71634292,-73.99212000
14.71890292,-73.99212000
14.72146292,-73.99212000
14.72402292,-69.50591000
14.72658292,-73.99212000
14.72914292,-69.50591000
14.73170292,-73.99212000
14.73426292,-73.99212000
14.73682292,-69.50591000
14.73938292,-73.99212000
14.74194292,-73.99212000
14.74450292,-73.99212000
14.74706292,-73.99212000
14.74962292,-73.99212000
14.75218292,-73.99212000
14.75474292,-73.99212000
14.75730292,-73.99212000
14.75986292,-73.99212000
14.76242292,-73.99212000
14.76498292,-73.99212000
14.76754292,-78.46308000
14.77010292,-73.99212000
14.77266292,-78.46308000
14.77522292,-78.46308000
14.77778292,-73.99212000
14.78034292,-78.46308000
14.78290292,-73.99212000
14.78546292,-73.99212000
14.78802292,-73.99212000
14.79058292,-73.99212000
14.79314292,-78.46308000
14.79570292,-69.50591000
14.79826292,-73.99212000
14.80082292,-73.99212000
14.80338292,-73.99212000
14.80594292,-73.99212000
14.80850292,-73.99212000
14.81106292,-78.46308000
14.81362292,-73.99212000
14.81618292,-73.99212000
14.81874292,-73.99212000
14.82130292,-73.99212000
14.82386292,-78.46308000
14.82642292,-73.99212000
14.82898292,-78.46308000
14.83154292,-73.99212000
14.83410292,-78.46308000
14.83666292,-73.99212000
14.83922292,-73.99212000
14.84178292,-73.99212000
14.84434292,-73.99212000
14.84690292,-73.99212000
14.84946292,-78.46308000
14.85202292,-78.46308000
14.85458292,-73.99212000
14.85714292,-73.99212000
14.85970292,-73.99212000
14.86226292,-78.46308000
14.86482292,-78.46308000
14.86738292,-73.99212000
14.86994292,-73.99212000
14.87250292,-73.99212000
14.87506292,-78.46308000
14.87762292,-78.46308000
14.88018292,-73.99212000
14.88274292,-73.99212000
14.88530292,-73.99212000
14.88786292,-78.46308000
14.89042292,-73.99212000
14.89298292,-73.99212000
14.89554292,-78.46308000
14.89810292,-78.46308000
14.90066292,-73.99212000
14.90322292,-78.46308000
14.90578292,-78.46308000
14.90834292,-73.99212000
14.91090292,-78.46308000
14.91346292,-73.99212000
14.91602292,-78.46308000
14.91858292,-78.46308000
14.92114292,-73.99212000
14.92370292,-73.99212000
14.92626292,-78.46308000
14.92882292,-78.46308000
14.93138292,-78.46308000
14.93394292,-78.46308000
14.93650292,-78.46308000
14.93906292,-73.99212000
14.94162292,-78.46308000
14.94418292,-78.46308000
14.94674292,-78.46308000
14.94930292,-73.99212000
14.95186292,-78.46308000
14.95442292,-73.99212000
14.95698292,-78.46308000
14.95954292,-78.46308000
14.96210292,-73.99212000
14.96466292,-78.46308000
14.96722292,-78.46308000
14.96978292,-78.46308000
14.97234292,-78.46308000
14.97490292,-78.46308000
14.97746292,-73.99212000
14.98002292,-73.99212000
14.98258292,-78.46308000
14.98514292,-78.46308000
14.98770292,-73.99212000
14.99026292,-78.46308000
14.99282292,-73.99212000
14.99538292,-73.99212000
14.99794292,-73.99212000
15.00050292,-73.99212000
15.00306292,-73.99212000
15.00562292,-78.46308000
15.00818292,-78.46308000
15.01074292,-78.46308000
15.01330292,-73.99212000
15.01586292,-73.99212000
15.01842292,-73.99212000
15.02098292,-78.46308000
15.02354292,-73.99212000
15.02610292,-73.99212000
15.02866292,-73.99212000
15.03122292,-73.99212000
15.03378292,-73.99212000
15.03634292,-73.99212000
15.03890292,-73.99212000
15.04146292,-78.46308000
15.04402292,-73.99212000
15.04658292,-78.46308000
15.04914292,-73.99212000
15.05170292,-73.99212000
15.05426292,-73.99212000
15.05682292,-73.99212000
15.05938292,-73.99212000
15.06194292,-73.99212000
15.06450292,-73.99212000
15.06706292,-73.99212000
15.06962292,-78.46308000
15.07218292,-73.99212000
15.07474292,-73.99212000
15.07730292,-73.99212000
15.07986292,-73.99212000
15.08242292,-73.99212000
15.08498292,-73.99212000
15.08754292,-73.99212000
15.09010292,-73.99212000
15.09266292,-73.99212000
15.09522292,-73.99212000
15.09778292,-73.99212000
15.10034292,-73.99212000
15.10290292,-73.99212000
15.10546292,-69.50591000
15.10802292,-73.99212000
15.11058292,-73.99212000
15.11314292,-73.99212000
15.11570292,-73.99212000
15.11826292,-73.99212000
15.12082292,-73.99212000
15.12338292,-73.99212000
15.12594292,-73.99212000
15.12850292,-73.99212000
15.13106292,-73.99212000
15.13362292,-69.50591000
15.13618292,-73.99212000
15.13874292,-73.99212000
15.14130292,-69.50591000
15.14386292,-73.99212000
15.14642292,-73.99212000
15.14898292,-73.99212000
15.15154292,-73.99212000
15.15410292,-73.99212000
15.15666292,-69.50591000
15.15922292,-73.99212000
15.16178292,-73.99212000
15.16434292,-73.99212000
15.16690292,-73.99212000
15.16946292,-69.50591000
15.17202292,-73.99212000
15.17458292,-69.50591000
15.17714292,-69.50591000
15.17970292,-73.99212000
15.18226292,-73.99212000
15.18482292,-73.99212000
15.18738292,-73.99212000
15.18994292,-69.50591000
15.19250292,-78.46308000
15.19506292,-73.99212000
15.19762292,-73.99212000
15.20018292,-73.99212000
15.20274292,-73.99212000
15.20530292,-73.99212000
15.20786292,-73.99212000
15.21042292,-73.99212000
15.21298292,-73.99212000
15.21554292,-73.99212000
15.21810292,-73.99212000
15.22066292,-73.99212000
15.22322292,-73.99212000
15.22578292,-69.50591000
15.22834292,-73.99212000
15.23090292,-73.99212000
15.23346292,-73.99212000
15.23602292,-73.99212000
15.23858292,-73.99212000
15.24114292,-73.99212000
15.24370292,-73.99212000
15.24626292,-73.99212000
15.24882292,-78.46308000
15.25138292,-78.46308000
15.25394292,-73.99212000
15.25650292,-73.99212000
15.25906292,-78.46308000
15.26162292,-73.99212000
15.26418292,-73.99212000
15.26674292,-73.99212000
15.26930292,-73.99212000
15.27186292,-73.99212000
15.27442292,-73.99212000
15.27698292,-73.99212000
15.27954292,-78.46308000
15.28210292,-73.99212000
15.28466292,-73.99212000
15.28722292,-73.99212000
15.28978292,-78.46308000
15.29234292,-73.99212000
15.29490292,-73.99212000
15.29746292,-73.99212000
15.30002292,-73.99212000
15.30258292,-73.99212000
15.30514292,-69.50591000
15.30770292,-73.99212000
15.31026292,-73.99212000
15.31282292,-73.99212000
15.31538292,-73.99212000
15.31794292,-73.99212000
15.32050292,-73.99212000
15.32306292,-73.99212000
15.32562292,-73.99212000
15.32818292,-73.99212000
15.33074292,-73.99212000
15.33330292,-73.99212000
15.33586292,-73.99212000
15.33842292,-78.46308000
15.34098292,-78.46308000
15.34354292,-78.46308000
15.34610292,-73.99212000
15.34866292,-73.99212000
15.35122292,-78.46308000
15.35378292,-78.46308000
15.35634292,-73.99212000
15.35890292,-78.46308000
15.36146292,-73.99212000
15.36402292,-78.46308000
15.36658292,-73.99212000
15.36914292,-73.99212000
15.37170292,-78.46308000
15.37426292,-78.46308000
15.37682292,-73.99212000
15.37938292,-73.99212000
15.38194292,-73.99212000
15.38450292,-78.46308000
15.38706292,-78.46308000
15.38962292,-78.46308000
15.39218292,-78.46308000
15.39474292,-73.99212000
15.39730292,-73.99212000
15.39986292,-73.99212000
15.40242292,-78.46308000
15.40498292,-73.99212000
15.40754292,-73.99212000
15.41010292,-78.46308000
15.41266292,-73.99212000
15.41522292,-73.99212000
15.41778292,-78.46308000
15.42034292,-78.46308000
15.42290292,-78.46308000
15.42546292,-78.46308000
15.42802292,-78.46308000
15.43058292,-73.99212000
15.43314292,-73.99212000
15.43570292,-73.99212000
15.43826292,-73.99212000
15.44082292,-78.46308000
15.44338292,-78.46308000
15.44594292,-73.99212000
15.44850292,-73.99212000
15.45106292,-73.99212000
15.45362292,-73.99212000
15.45618292,-78.46308000
15.45874292,-78.46308000
15.46130292,-73.99212000
15.46386292,-78.46308000
15.46642292,-73.99212000
15.46898292,-73.99212000
15.47154292,-78.46308000
15.47410292,-73.99212000
15.47666292,-73.99212000
15.47922292,-73.99212000
15.48178292,-73.99212000
15.48434292,-73.99212000
15.48690292,-73.99212000
15.48946292,-78.46308000
15.49202292,-73.99212000
15.49458292,-73.99212000
15.49714292,-73.99212000
15.49970292,-73.99212000
15.50226292,-73.99212000
15.50482292,-73.99212000
15.50738292,-78.46308000
15.50994292,-73.99212000
15.51250292,-73.99212000
15.51506292,-73.99212000
15.51762292,-73.99212000
15.52018292,-69.50591000
15.52274292,-73.99212000
15.52530292,-73.99212000
15.52786292,-69.50591000
15.53042292,-73.99212000
15.53298292,-73.99212000
15.53554292,-73.99212000
15.53810292,-73.99212000
15.54066292,-73.99212000
15.54322292,-73.99212000
15.54578292,-73.99212000
15.54834292,-73.99212000
15.55090292,-73.99212000
15.55346292,-69.50591000
15.55602292,-73.99212000
15.55858292,-69.50591000
15.56114292,-73.99212000
15.56370292,-73.99212000
15.56626292,-73.99212000
15.56882292,-73.99212000
15.57138292,-69.50591000
15.57394292,-73.99212000
15.57650292,-73.99212000
15.57906292,-73.99212000
15.58162292,-73.99212000
15.58418292,-73.99212000
15.58674292,-73.99212000
15.58930292,-73.99212000
15.59186292,-69.50591000
15.59442292,-73.99212000
15.59698292,-73.99212000
15.59954292,-73.99212000
15.60210292,-73.99212000
15.60466292,-73.99212000
15.60722292,-69.50591000
15.60978292,-69.50591000
15.61234292,-69.50591000
15.61490292,-69.50591000
15.61746292,-73.99212000
15.62002292,-73.99212000
15.62258292,-69.50591000
15.62514292,-69.50591000
15.62770292,-73.99212000
15.63026292,-73.99212000
15.63282292,-69.50591000
15.63538292,-69.50591000
15.63794292,-69.50591000
15.64050292,-73.99212000
15.64306292,-69.50591000
15.64562292,-69.50591000
15.64818292,-73.99212000
15.65074292,-73.99212000
15.65330292,-69.50591000
15.65586292,-73.99212000
15.65842292,-73.99212000
15.66098292,-69.50591000
15.66354292,-73.99212000
15.66610292,-69.50591000
15.66866292,-69.50591000
15.67122291,-73.99212000
15.67378291,-73.99212000
15.67634291,-73.99212000
15.67890291,-69.50591000
15.68146291,-73.99212000
15.68402291,-73.99212000
15.68658291,-73.99212000
15.68914291,-73.99212000
15.69170291,-69.50591000
15.69426291,-69.50591000
15.69682291,-73.99212000
15.69938291,-69.50591000
15.70194291,-73.99212000
15.70450291,-73.99212000
15.70706291,-73.99212000
15.70962291,-73.99212000
15.71218291,-73.99212000
15.71474291,-73.99212000
15.71730291,-69.50591000
15.71986291,-73.99212000
15.72242291,-73.99212000
15.72498291,-73.99212000
15.72754291,-73.99212000
15.73010291,-73.99212000
15.73266291,-73.99212000
15.73522291,-73.99212000
15.73778291,-73.99212000
15.74034291,-73.99212000
15.74290291,-69.50591000
15.74546291,-73.99212000
15.74802291,-73.99212000
15.75058291,-69.50591000
15.75314291,-73.99212000
15.75570291,-69.50591000
15.75826291,-73.99212000
15.76082291,-73.99212000
15.76338291,-73.99212000
15.76594291,-69.50591000
15.76850291,-69.50591000
15.77106291,-69.50591000
15.77362291,-69.50591000
15.77618291,-69.50591000
15.77874291,-73.99212000
15.78130291,-69.50591000
15.78386291,-73.99212000
15.78642291,-69.50591000
15.78898291,-73.99212000
15.79154291,-69.50591000
15.79410291,-73.99212000
15.79666291,-69.50591000
15.79922291,-69.50591000
15.80178291,-73.99212000
15.80434291,-69.50591000
15.80690291,-69.50591000
15.80946291,-73.99212000
15.81202291,-69.50591000
15.81458291,-69.50591000
15.81714291,-73.99212000
15.81970291,-73.99212000
15.82226291,-73.99212000
15.82482291,-73.99212000
15.82738291,-73.99212000
15.82994291,-69.50591000
15.83250291,-69.50591000
15.83506291,-69.50591000
15.83762291,-69.50591000
15.84018291,-69.50591000
15.84274291,-73.99212000
15.84530291,-69.50591000
15.84786291,-69.50591000
15.85042291,-69.50591000
15.85298291,-73.99212000
15.85554291,-69.50591000
15.85810291,-69.50591000
15.86066291,-69.50591000
15.86322291,-69.50591000
15.86578291,-69.50591000
15.86834291,-69.50591000
15.87090291,-69.50591000
15.87346291,-69.50591000
15.87602291,-69.50591000
15.87858291,-69.50591000
15.88114291,-69.50591000
15.88370291,-69.50591000
15.88626291,-69.50591000
15.88882291,-73.99212000
15.89138291,-69.50591000
15.89394291,-73.99212000
15.89650291,-69.50591000
15.89906291,-69.50591000
15.90162291,-69.50591000
15.90418291,-73.99212000
15.90674291,-73.99212000
15.90930291,-69.50591000
15.91186291,-73.99212000
15.91442291,-69.50591000
15.91698291,-73.99212000
15.91954291,-73.99212000
15.92210291,-73.99212000
15.92466291,-69.50591000
15.92722291,-69.50591000
15.92978291,-69.50591000
15.93234291,-69.50591000
15.93490291,-69.50591000
15.93746291,-73.99212000
15.94002291,-69.50591000
15.94258291,-69.50591000
15.94514291,-69.50591000
15.94770291,-73.99212000
15.95026291,-73.99212000
15.95282291,-69.50591000
15.95538291,-73.99212000
15.95794291,-73.99212000
15.96050291,-69.50591000
15.96306291,-69.50591000
15.96562291,-69.50591000
15.96818291,-69.50591000
15.97074291,-69.50591000
15.97330291,-73.99212000
15.97586291,-73.99212000
15.97842291,-69.50591000
15.98098291,-73.99212000
15.98354291,-69.50591000
15.98610291,-69.50591000
15.98866291,-69.50591000
15.99122291,-69.50591000
15.99378291,-69.50591000
15.99634291,-69.50591000
15.99890291,-69.50591000
16.00146291,-69.50591000
16.00402291,-69.50591000
16.00658291,-69.50591000
16.00914291,-69.50591000
16.01170291,-69.50591000
16.01426291,-69.50591000
16.01682291,-69.50591000
16.01938291,-69.50591000
16.02194291,-69.50591000
16.02450291,-69.50591000
16.02706291,-69.50591000
16.02962291,-69.50591000
16.03218291,-69.50591000
16.03474291,-73.99212000
16.03730291,-69.50591000
16.03986291,-69.50591000
16.04242291,-69.50591000
16.04498291,-69.50591000
16.04754291,-69.50591000
16.05010291,-69.50591000
16.05266291,-69.50591000
16.05522291,-73.99212000
16.05778291,-69.50591000
16.06034291,-73.99212000
16.06290291,-73.99212000
16.06546291,-69.50591000
16.06802291,-69.50591000
16.07058291,-69.50591000
16.07314291,-69.50591000
16.07570291,-69.50591000
16.07826291,-69.50591000
16.08082291,-69.50591000
16.08338291,-69.50591000
16.08594291,-69.50591000
16.08850291,-69.50591000
16.09106291,-69.50591000
16.09362291,-73.99212000
16.09618291,-73.99212000
16.09874291,-73.99212000
16.10130291,-69.50591000
16.10386291,-69.50591000
16.10642291,-69.50591000
16.10898291,-69.50591000
16.11154291,-69.50591000
16.11410291,-69.50591000
16.11666291,-73.99212000
16.11922291,-69.50591000
16.12178291,-73.99212000
16.12434291,-69.50591000
16.12690291,-69.50591000
16.12946291,-69.50591000
16.13202291,-69.50591000
16.13458291,-69.50591000
16.13714291,-69.50591000
16.13970291,-73.99212000
16.14226291,-69.50591000
16.14482291,-73.99212000
16.14738291,-69.50591000
16.14994291,-69.50591000
16.15250291,-73.99212000
16.15506291,-73.99212000
16.15762291,-69.50591000
16.16018291,-69.50591000
16.16274291,-69.50591000
16.16530291,-69.50591000
16.16786291,-69.50591000
16.17042291,-69.50591000
16.17298291,-69.50591000
16.17554291,-69.50591000
16.17810291,-73.99212000
16.18066291,-69.50591000
16.18322291,-73.99212000
16.18578291,-69.50591000
16.18834291,-69.50591000
16.19090291,-73.99212000
16.19346291,-69.50591000
16.19602291,-69.50591000
16.19858291,-69.50591000
16.20114291,-73.99212000
16.20370291,-69.50591000
16.20626291,-69.50591000
16.20882291,-69.50591000
16.21138291,-73.99212000
16.21394291,-73.99212000
16.21650291,-69.50591000
16.21906291,-69.50591000
16.22162291,-73.99212000
16.22418291,-73.99212000
16.22674291,-69.50591000
16.22930291,-73.99212000
16.23186291,-69.50591000
16.23442291,-69.50591000
16.23698291,-73.99212000
16.23954291,-73.99212000
16.24210291,-69.50591000
16.24466291,-73.99212000
16.24722291,-69.50591000
16.24978291,-69.50591000
16.25234291,-69.50591000
16.25490291,-69.50591000
16.25746291,-73.99212000
16.26002291,-73.99212000
16.26258291,-73.99212000
16.26514291,-73.99212000
16.26770291,-73.99212000
16.27026291,-69.50591000
16.27282291,-73.99212000
16.27538291,-73.99212000
16.27794291,-73.99212000
16.28050291,-73.99212000
16.28306291,-73.99212000
16.28562291,-73.99212000
16.28818291,-69.50591000
16.29074291,-73.99212000
16.29330291,-69.50591000
16.29586291,-73.99212000
16.29842291,-73.99212000
16.30098291,-73.99212000
16.30354291,-73.99212000
16.30610291,-73.99212000
16.30866291,-73.99212000
16.31122291,-73.99212000
16.31378291,-73.99212000
16.31634291,-73.99212000
16.31890291,-69.50591000
16.32146291,-73.99212000
16.32402291,-73.99212000
16.32658291,-73.99212000
16.32914291,-73.99212000
16.33170291,-73.99212000
16.33426291,-73.99212000
16.33682291,-73.99212000
16.33938291,-73.99212000
16.34194291,-73.99212000
16.34450291,-73.99212000
16.34706291,-73.99212000
16.34962291,-73.99212000
16.35218291,-73.99212000
16.35474291,-73.99212000
16.35730291,-73.99212000
16.35986291,-73.99212000
16.36242291,-78.46308000
16.36498291,-73.99212000
16.36754291,-73.99212000
16.37010291,-73.99212000
16.37266291,-73.99212000
16.37522291,-78.46308000
16.37778291,-73.99212000
16.38034291,-78.46308000
16.38290291,-78.46308000
16.38546291,-73.99212000
16.38802291,-73.99212000
16.39058291,-73.99212000
16.39314291,-73.99212000
16.39570291,-78.46308000
16.39826291,-73.99212000
16.40082291,-73.99212000
16.40338291,-73.99212000
16.40594291,-78.46308000
16.40850291,-73.99212000
16.41106291,-78.46308000
16.41362291,-73.99212000
16.41618291,-78.46308000
16.41874291,-73.99212000
16.42130291,-73.99212000
16.42386291,-73.99212000
16.42642291,-73.99212000
16.42898291,-73.99212000
16.43154291,-78.46308000
16.43410291,-73.99212000
16.43666291,-73.99212000
16.43922291,-73.99212000
16.44178291,-78.46308000
16.44434291,-73.99212000
16.44690291,-73.99212000
16.44946291,-78.46308000
16.45202291,-73.99212000
16.45458291,-73.99212000
16.45714291,-73.99212000
16.45970291,-78.46308000
16.46226291,-73.99212000
16.46482291,-78.46308000
16.46738291,-73.99212000
16.46994291,-73.99212000
16.47250291,-73.99212000
16.47506291,-73.99212000
16.47762291,-73.99212000
16.48018291,-73.99212000
16.48274291,-73.99212000
16.48530291,-73.99212000
16.48786291,-73.99212000
16.49042291,-73.99212000
16.49298291,-73.99212000
16.49554291,-73.99212000
16.49810291,-73.99212000
16.50066291,-73.99212000
16.50322291,-73.99212000
16.50578291,-73.99212000
16.50834291,-73.99212000
16.51090291,-73.99212000
16.51346291,-78.46308000
16.51602291,-73.99212000
16.51858291,-73.99212000
16.52114291,-73.99212000
16.52370291,-69.50591000
16.52626291,-73.99212000
16.52882291,-73.99212000
16.53138291,-73.99212000
16.53394291,-73.99212000
16.53650291,-69.50591000
16.53906291,-73.99212000
16.54162291,-73.99212000
16.54418291,-73.99212000
16.54674291,-73.99212000
16.54930291,-73.99212000
16.55186291,-73.99212000
16.55442291,-73.99212000
16.55698291,-69.50591000
16.55954291,-69.50591000
16.56210291,-73.99212000
16.56466291,-73.99212000
16.56722291,-73.99212000
16.56978291,-73.99212000
16.57234291,-73.99212000
16.57490291,-73.99212000
16.57746291,-73.99212000
16.58002291,-69.50591000
16.58258291,-73.99212000
16.58514291,-69.50591000
16.58770291,-73.99212000
16.59026291,-73.99212000
16.59282291,-73.99212000
16.59538291,-73.99212000
16.59794291,-73.99212000
16.60050291,-73.99212000
16.60306291,-73.99212000
16.60562291,-69.50591000
16.60818291,-69.50591000
16.61074291,-73.99212000
16.61330291,-73.99212000
16.61586291,-73.99212000
16.61842291,-69.50591000
16.62098291,-73.99212000
16.62354291,-69.50591000
16.62610291,-69.50591000
16.62866291,-69.50591000
16.63122291,-73.99212000
16.63378291,-73.99212000
16.63634291,-69.50591000
16.63890291,-69.50591000
16.64146291,-69.50591000
16.64402291,-69.50591000
16.64658291,-69.50591000
16.64914291,-69.50591000
16.65170291,-73.99212000
16.65426291,-73.99212000
16.65682291,-69.50591000
16.65938291,-73.99212000
16.66194291,-73.99212000
16.66450291,-69.50591000
16.66706291,-73.99212000
16.66962291,-69.50591000
16.67218291,-69.50591000
16.67474291,-73.99212000
16.67730291,-69.50591000
16.67986291,-69.50591000
16.68242291,-73.99212000
16.68498291,-69.50591000
16.68754291,-69.50591000
16.69010291,-69.50591000
16.69266291,-69.50591000
16.69522291,-69.50591000
16.69778291,-69.50591000
16.70034291,-69.50591000
16.70290291,-69.50591000
16.70546291,-69.50591000
16.70802291,-69.50591000
16.71058291,-69.50591000
16.71314291,-69.50591000
16.71570291,-69.50591000
16.71826291,-69.50591000
16.72082291,-69.50591000
16.72338291,-69.50591000
16.72594291,-69.50591000
16.72850291,-69.50591000
16.73106291,-69.50591000
16.73362291,-69.50591000
16.73618291,-69.50591000
16.73874291,-69.50591000
16.74130291,-69.50591000
16.74386291,-69.50591000
16.74642291,-69.50591000
16.74898291,-69.50591000
16.75154291,-69.50591000
16.75410291,-69.50591000
16.75666291,-69.50591000
16.75922291,-69.50591000
16.76178291,-69.50591000
16.76434291,-69.50591000
16.76690291,-69.50591000
16.76946291,-69.50591000
16.77202291,-69.50591000
16.77458291,-69.50591000
16.77714291,-69.50591000
16.77970291,-69.50591000
16.78226291,-69.50591000
16.78482291,-73.99212000
16.78738291,-69.50591000
16.78994291,-69.50591000
16.79250291,-69.50591000
16.79506291,-69.50591000
16.79762291,-69.50591000
16.80018291,-69.50591000
16.80274291,-73.99212000
16.80530291,-69.50591000
16.80786291,-69.50591000
16.81042291,-69.50591000
16.81298291,-69.50591000
16.81554291,-69.50591000
16.81810291,-69.50591000
16.82066291,-69.50591000
16.82322291,-69.50591000
16.82578291,-69.50591000
16.82834291,-69.50591000
16.83090291,-69.50591000
16.83346291,-69.50591000
16.83602291,-69.50591000
16.83858291,-69.50591000
16.84114291,-69.50591000
16.84370291,-69.50591000
16.84626291,-69.50591000
16.84882291,-69.50591000
16.85138291,-69.50591000
16.85394291,-69.50591000
16.85650291,-73.99212000
16.85906291,-69.50591000
16.86162291,-69.50591000
16.86418291,-69.50591000
16.86674291,-69.50591000
16.86930291,-69.50591000
16.87186291,-69.50591000
16.87442291,-69.50591000
16.87698291,-69.50591000
16.87954291,-73.99212000
16.88210291,-69.50591000
16.88466291,-69.50591000
16.88722291,-69.50591000
16.88978291,-69.50591000
16.89234291,-69.50591000
16.89490291,-69.50591000
16.89746291,-73.99212000
16.90002291,-69.50591000
16.90258291,-69.50591000
16.90514291,-69.50591000
16.90770291,-69.50591000
16.91026291,-69.50591000
16.91282291,-73.99212000
16.91538291,-69.50591000
16.91794291,-73.99212000
16.92050291,-69.50591000
16.92306291,-69.50591000
16.92562291,-73.99212000
16.92818291,-69.50591000
16.93074291,-69.50591000
16.93330291,-69.50591000
16.93586291,-73.99212000
16.93842291,-69.50591000
16.94098291,-73.99212000
16.94354291,-73.99212000
16.94610291,-69.50591000
16.94866291,-69.50591000
16.95122291,-69.50591000
16.95378291,-69.50591000
16.95634291,-73.99212000
16.95890291,-69.50591000
16.96146291,-73.99212000
16.96402291,-73.99212000
16.96658291,-69.50591000
16.96914291,-69.50591000
16.97170291,-73.99212000
16.97426291,-69.50591000
16.97682291,-69.50591000
16.97938291,-69.50591000
16.98194291,-73.99212000
16.98450291,-69.50591000
16.98706291,-73.99212000
16.98962291,-73.99212000
16.99218291,-69.50591000
16.99474291,-69.50591000
16.99730291,-69.50591000
16.99986291,-69.50591000
17.00242291,-69.50591000
17.00498291,-73.99212000
17.00754291,-73.99212000
17.01010291,-69.50591000
17.01266291,-69.50591000
17.01522291,-69.50591000
17.01778291,-69.50591000
17.02034291,-69.50591000
17.02290291,-69.50591000
17.02546291,-73.99212000
17.02802291,-69.50591000
17.03058291,-73.99212000
17.03314291,-69.50591000
17.03570291,-69.50591000
17.03826291,-73.99212000
17.04082291,-69.50591000
17.04338291,-73.99212000
17.04594291,-69.50591000
17.04850291,-73.99212000
17.05106291,-69.50591000
17.05362291,-69.50591000
17.05618291,-69.50591000
17.05874291,-73.99212000
17.06130291,-73.99212000
17.06386291,-69.50591000
17.06642291,-69.50591000
17.06898291,-73.99212000
17.07154291,-69.50591000
17.07410291,-73.99212000
17.07666291,-73.99212000
17.07922291,-73.99212000
17.08178291,-69.50591000
17.08434291,-73.99212000
17.08690291,-73.99212000
17.08946291,-73.99212000
17.09202291,-69.50591000
17.09458291,-69.50591000
17.09714291,-69.50591000
17.09970291,-73.99212000
17.10226291,-73.99212000
17.10482291,-73.99212000
17.10738291,-69.50591000
17.10994291,-73.99212000
17.11250291,-73.99212000
17.11506291,-73.99212000
17.11762291,-69.50591000
17.12018291,-69.50591000
17.12274291,-73.99212000
17.12530291,-73.99212000
17.12786291,-73.99212000
17.13042291,-73.99212000
17.13298291,-69.50591000
17.13554291,-73.99212000
17.13810291,-73.99212000
17.14066291,-73.99212000
17.14322291,-73.99212000
17.14578291,-73.99212000
17.14834291,-78.46308000
17.15090291,-73.99212000
17.15346291,-73.99212000
17.15602291,-73.99212000
17.15858291,-73.99212000
17.16114291,-73.99212000
17.16370291,-73.99212000
17.16626291,-73.99212000
17.16882291,-78.46308000
17.17138291,-73.99212000
17.17394291,-73.99212000
17.17650291,-73.99212000
17.17906291,-73.99212000
17.18162291,-73.99212000
17.18418291,-73.99212000
17.18674291,-73.99212000
17.18930291,-73.99212000
17.19186291,-69.50591000
17.19442291,-73.99212000
17.19698291,-73.99212000
17.19954291,-73.99212000
17.20210291,-73.99212000
17.20466291,-73.99212000
17.20722291,-73.99212000
17.20978291,-73.99212000
17.21234291,-69.50591000
17.21490291,-73.99212000
17.21746291,-73.99212000
17.22002291,-73.99212000
17.22258291,-73.99212000
17.22514291,-73.99212000
17.22770291,-73.99212000
17.23026291,-73.99212000
17.23282291,-73.99212000
17.23538291,-73.99212000
17.23794291,-73.99212000
17.24050291,-69.50591000
17.24306291,-73.99212000
17.24562291,-69.50591000
17.24818291,-73.99212000
17.25074291,-73.99212000
17.25330291,-69.50591000
17.25586291,-73.99212000
17.25842291,-73.99212000
17.26098291,-69.50591000
17.26354291,-69.50591000
17.26610291,-73.99212000
17.26866291,-73.99212000
17.27122291,-73.99212000
17.27378291,-73.99212000
17.27634291,-73.99212000
17.27890291,-69.50591000
17.28146291,-73.99212000
17.28402291,-69.50591000
17.28658291,-73.99212000
17.28914291,-73.99212000
17.29170291,-73.99212000
17.29426291,-73.99212000
17.29682291,-73.99212000
17.29938291,-69.50591000
17.30194291,-69.50591000
17.30450291,-69.50591000
17.30706291,-69.50591000
17.30962291,-73.99212000
17.31218291,-73.99212000
17.31474291,-73.99212000
17.31730290,-73.99212000
17.31986290,-73.99212000
17.32242290,-73.99212000
17.32498290,-73.99212000
17.32754290,-69.50591000
17.33010290,-69.50591000
17.33266290,-69.50591000
17.33522290,-73.99212000
17.33778290,-73.99212000
17.34034290,-73.99212000
17.34290290,-73.99212000
17.34546290,-69.50591000
17.34802290,-69.50591000
17.35058290,-69.50591000
17.35314290,-69.50591000
17.35570290,-73.99212000
17.35826290,-73.99212000
17.36082290,-73.99212000
17.36338290,-73.99212000
17.36594290,-69.50591000
17.36850290,-73.99212000
17.37106290,-73.99212000
17.37362290,-69.50591000
17.37618290,-69.50591000
17.37874290,-69.50591000
17.38130290,-69.50591000
17.38386290,-73.99212000
17.38642290,-69.50591000
17.38898290,-69.50591000
17.39154290,-73.99212000
17.39410290,-73.99212000
17.39666290,-69.50591000
17.39922290,-73.99212000
17.40178290,-69.50591000
17.40434290,-69.50591000
17.40690290,-69.50591000
17.40946290,-69.50591000
17.41202290,-69.50591000
17.41458290,-69.50591000
17.41714290,-73.99212000
17.41970290,-73.99212000
17.42226290,-69.50591000
17.42482290,-69.50591000
17.42738290,-69.50591000
17.42994290,-69.50591000
17.43250290,-73.99212000
17.43506290,-69.50591000
17.43762290,-69.50591000
17.44018290,-73.99212000
17.44274290,-69.50591000
17.44530290,-69.50591000
17.44786290,-69.50591000
17.45042290,-73.99212000
17.45298290,-69.50591000
17.45554290,-69.50591000
17.45810290,-69.50591000
17.46066290,-69.50591000
17.46322290,-69.50591000
17.46578290,-69.50591000
17.46834290,-69.50591000
17.47090290,-69.50591000
17.47346290,-69.50591000
17.47602290,-69.50591000
17.47858290,-69.50591000
17.48114290,-69.50591000
17.48370290,-69.50591000
17.48626290,-69.50591000
17.48882290,-69.50591000
17.49138290,-69.50591000
17.49394290,-69.50591000
17.49650290,-69.50591000
17.49906290,-69.50591000
17.50162290,-69.50591000
17.50418290,-73.99212000
17.50674290,-69.50591000
17.50930290,-69.50591000
17.51186290,-69.50591000
17.51442290,-69.50591000
17.51698290,-73.99212000
17.51954290,-69.50591000
17.52210290,-73.99212000
17.52466290,-69.50591000
17.52722290,-73.99212000
17.52978290,-69.50591000
17.53234290,-69.50591000
17.53490290,-73.99212000
17.53746290,-73.99212000
17.54002290,-69.50591000
17.54258290,-73.99212000
17.54514290,-69.50591000
17.54770290,-69.50591000
17.55026290,-73.99212000
17.55282290,-73.99212000
17.55538290,-73.99212000
17.55794290,-69.50591000
17.56050290,-73.99212000
17.56306290,-73.99212000
17.56562290,-73.99212000
17.56818290,-73.99212000
17.57074290,-73.99212000
17.57330290,-73.99212000
17.57586290,-69.50591000
17.57842290,-73.99212000
17.58098290,-73.99212000
17.58354290,-73.99212000
17.58610290,-78.46308000
17.58866290,-73.99212000
17.59122290,-78.46308000
17.59378290,-78.46308000
17.59634290,-73.99212000
17.59890290,-73.99212000
17.60146290,-78.46308000
17.60402290,-73.99212000
17.60658290,-73.99212000
17.60914290,-78.46308000
17.61170290,-78.46308000
17.61426290,-78.46308000
17.61682290,-78.46308000
17.61938290,-78.46308000
17.62194290,-73.99212000
17.62450290,-73.99212000
17.62706290,-78.46308000
17.62962290,-78.46308000
17.63218290,-78.46308000
17.63474290,-78.46308000
17.63730290,-78.46308000
17.63986290,-78.46308000
17.64242290,-78.46308000
17.64498290,-78.46308000
17.64754290,-78.46308000
17.65010290,-73.99212000
17.65266290,-78.46308000
17.65522290,-78.46308000
17.65778290,-78.46308000
17.66034290,-78.46308000
17.66290290,-73.99212000
17.66546290,-78.46308000
17.66802290,-78.46308000
17.67058290,-78.46308000
17.67314290,-73.99212000
17.67570290,-78.46308000
17.67826290,-78.46308000
17.68082290,-73.99212000
17.68338290,-78.46308000
17.68594290,-78.46308000
17.68850290,-73.99212000
17.69106290,-78.46308000
17.69362290,-73.99212000
17.69618290,-73.99212000
17.69874290,-78.46308000
17.70130290,-73.99212000
17.70386290,-73.99212000
17.70642290,-78.46308000
17.70898290,-78.46308000
17.71154290,-73.99212000
17.71410290,-73.99212000
17.71666290,-73.99212000
17.71922290,-73.99212000
17.72178290,-73.99212000
17.72434290,-73.99212000
17.72690290,-73.99212000
17.72946290,-73.99212000
17.73202290,-73.99212000
17.73458290,-73.99212000
17.73714290,-73.99212000
17.73970290,-73.99212000
17.74226290,-73.99212000
17.74482290,-73.99212000
17.74738290,-73.99212000
17.74994290,-73.99212000
17.75250290,-73.99212000
17.75506290,-69.50591000
17.75762290,-73.99212000
17.76018290,-73.99212000
17.76274290,-73.99212000
17.76530290,-73.99212000
17.76786290,-69.50591000
17.77042290,-73.99212000
17.77298290,-73.99212000
17.77554290,-73.99212000
17.77810290,-73.99212000
17.78066290,-69.50591000
17.78322290,-69.50591000
17.78578290,-73.99212000
17.78834290,-69.50591000
17.79090290,-73.99212000
17.79346290,-69.50591000
17.79602290,-73.99212000
17.79858290,-73.99212000
17.80114290,-69.50591000
17.80370290,-69.50591000
17.80626290,-73.99212000
17.80882290,-69.50591000
17.81138290,-69.50591000
17.81394290,-69.50591000
17.81650290,-73.99212000
17.81906290,-69.50591000
17.82162290,-69.50591000
17.82418290,-69.50591000
17.82674290,-69.50591000
17.82930290,-69.50591000
17.83186290,-69.50591000
17.83442290,-69.50591000
17.83698290,-73.99212000
17.83954290,-69.50591000
17.84210290,-69.50591000
17.84466290,-69.50591000
17.84722290,-69.50591000
17.84978290,-69.50591000
17.85234290,-69.50591000
17.85490290,-69.50591000
17.85746290,-69.50591000
17.86002290,-69.50591000
17.86258290,-69.50591000
17.86514290,-69.50591000
17.86770290,-69.50591000
17.87026290,-69.50591000
17.87282290,-69.50591000
17.87538290,-69.50591000
17.87794290,-69.50591000
17.88050290,-69.50591000
17.88306290,-69.50591000
17.88562290,-69.50591000
17.88818290,-69.50591000
17.89074290,-69.50591000
17.89330290,-69.50591000
17.89586290,-69.50591000
17.89842290,-69.50591000
17.90098290,-69.50591000
17.90354290,-69.50591000
17.90610290,-69.50591000
17.90866290,-69.50591000
17.91122290,-69.50591000
17.91378290,-73.99212000
17.91634290,-69.50591000
17.91890290,-69.50591000
17.92146290,-69.50591000
17.92402290,-69.50591000
17.92658290,-69.50591000
17.92914290,-69.50591000
17.93170290,-69.50591000
17.93426290,-69.50591000
17.93682290,-73.99212000
17.93938290,-69.50591000
17.94194290,-69.50591000
17.94450290,-69.50591000
17.94706290,-69.50591000
17.94962290,-73.99212000
17.95218290,-73.99212000
17.95474290,-73.99212000
17.95730290,-73.99212000
17.95986290,-69.50591000
17.96242290,-69.50591000
17.96498290,-69.50591000
17.96754290,-73.99212000
17.97010290,-69.50591000
17.97266290,-69.50591000
17.97522290,-69.50591000
17.97778290,-69.50591000
17.98034290,-73.99212000
17.98290290,-73.99212000
17.98546290,-69.50591000
17.98802290,-69.50591000
17.99058290,-69.50591000
17.99314290,-69.50591000
17.99570290,-73.99212000
17.99826290,-73.99212000
18.00082290,-73.99212000
18.00338290,-73.99212000
18.00594290,-69.50591000
18.00850290,-73.99212000
18.01106290,-73.99212000
18.01362290,-73.99212000
18.01618290,-73.99212000
18.01874290,-73.99212000
18.02130290,-69.50591000
18.02386290,-73.99212000
18.02642290,-73.99212000
18.02898290,-78.46308000
18.03154290,-73.99212000
18.03410290,-73.99212000
18.03666290,-73.99212000
18.03922290,-69.50591000
18.04178290,-73.99212000
18.04434290,-73.99212000
18.04690290,-73.99212000
18.04946290,-73.99212000
18.05202290,-73.99212000
18.05458290,-73.99212000
18.05714290,-73.99212000
18.05970290,-73.99212000
18.06226290,-73.99212000
18.06482290,-73.99212000
18.06738290,-73.99212000
18.06994290,-78.46308000
18.07250290,-78.46308000
18.07506290,-73.99212000
18.07762290,-73.99212000
18.08018290,-73.99212000
18.08274290,-78.46308000
18.08530290,-73.99212000
18.08786290,-73.99212000
18.09042290,-73.99212000
18.09298290,-73.99212000
18.09554290,-73.99212000
18.09810290,-73.99212000
18.10066290,-78.46308000
18.10322290,-73.99212000
18.10578290,-73.99212000
18.10834290,-73.99212000
18.11090290,-73.99212000
18.11346290,-73.99212000
18.11602290,-73.99212000
18.11858290,-73.99212000
18.12114290,-73.99212000
18.12370290,-73.99212000
18.12626290,-73.99212000
18.12882290,-73.99212000
18.13138290,-73.99212000
18.13394290,-73.99212000
18.13650290,-73.99212000
18.13906290,-73.99212000
18.14162290,-69.50591000
18.14418290,-73.99212000
18.14674290,-69.50591000
18.14930290,-73.99212000
18.15186290,-73.99212000
18.15442290,-73.99212000
18.15698290,-73.99212000
18.15954290,-73.99212000
18.16210290,-73.99212000
18.16466290,-73.99212000
18.16722290,-69.50591000
18.16978290,-69.50591000
18.17234290,-73.99212000
18.17490290,-73.99212000
18.17746290,-73.99212000
18.18002290,-69.50591000
18.18258290,-69.50591000
18.18514290,-73.99212000
18.18770290,-73.99212000
18.19026290,-73.99212000
18.19282290,-73.99212000
18.19538290,-73.99212000
18.19794290,-73.99212000
18.20050290,-78.46308000
18.20306290,-73.99212000
18.20562290,-69.50591000
18.20818290,-73.99212000
18.21074290,-69.50591000
18.21330290,-73.99212000
18.21586290,-73.99212000
18.21842290,-73.99212000
18.22098290,-73.99212000
18.22354290,-73.99212000
18.22610290,-69.50591000
18.22866290,-69.50591000
18.23122290,-73.99212000
18.23378290,-73.99212000
18.23634290,-73.99212000
18.23890290,-69.50591000
18.24146290,-69.50591000
18.24402290,-73.99212000
18.24658290,-73.99212000
18.24914290,-73.99212000
18.25170290,-73.99212000
18.25426290,-73.99212000
18.25682290,-69.50591000
18.25938290,-73.99212000
18.26194290,-69.50591000
18.26450290,-69.50591000
18.26706290,-69.50591000
18.26962290,-73.99212000
18.27218290,-73.99212000
18.27474290,-73.99212000
18.27730290,-73.99212000
18.27986290,-73.99212000
18.28242290,-73.99212000
18.28498290,-73.99212000
18.28754290,-69.50591000
18.29010290,-69.50591000
18.29266290,-73.99212000
18.29522290,-73.99212000
18.29778290,-69.50591000
18.30034290,-73.99212000
18.30290290,-69.50591000
18.30546290,-73.99212000
18.30802290,-69.50591000
18.31058290,-73.99212000
18.31314290,-73.99212000
18.31570290,-69.50591000
18.31826290,-73.99212000
18.32082290,-73.99212000
18.32338290,-73.99212000
18.32594290,-73.99212000
18.32850290,-73.99212000
18.33106290,-73.99212000
18.33362290,-69.50591000
18.33618290,-69.50591000
18.33874290,-69.50591000
18.34130290,-73.99212000
18.34386290,-69.50591000
18.34642290,-73.99212000
18.34898290,-73.99212000
18.35154290,-73.99212000
18.35410290,-73.99212000
18.35666290,-73.99212000
18.35922290,-73.99212000
18.36178290,-69.50591000
18.36434290,-69.50591000
18.36690290,-69.50591000
18.36946290,-69.50591000
18.37202290,-69.50591000
18.37458290,-69.50591000
18.37714290,-69.50591000
18.37970290,-73.99212000
18.38226290,-69.50591000
18.38482290,-73.99212000
18.38738290,-69.50591000
18.38994290,-73.99212000
18.39250290,-73.99212000
18.39506290,-69.50591000
18.39762290,-69.50591000
18.40018290,-69.50591000
18.40274290,-69.50591000
18.40530290,-69.50591000
18.40786290,-73.99212000
18.41042290,-69.50591000
18.41298290,-73.99212000
18.41554290,-73.99212000
18.41810290,-73.99212000
18.42066290,-73.99212000
18.42322290,-73.99212000
18.42578290,-73.99212000
18.42834290,-73.99212000
18.43090290,-73.99212000
18.43346290,-73.99212000
18.43602290,-73.99212000
18.43858290,-73.99212000
18.44114290,-69.50591000
18.44370290,-73.99212000
18.44626290,-69.50591000
18.44882290,-73.99212000
18.45138290,-69.50591000
18.45394290,-73.99212000
18.45650290,-73.99212000
18.45906290,-69.50591000
18.46162290,-73.99212000
18.46418290,-73.99212000
18.46674290,-73.99212000
18.46930290,-73.99212000
18.47186290,-73.99212000
18.47442290,-73.99212000
18.47698290,-69.50591000
18.47954290,-73.99212000
18.48210290,-73.99212000
18.48466290,-69.50591000
18.48722290,-73.99212000
18.48978290,-69.50591000
18.49234290,-73.99212000
18.49490290,-73.99212000
18.49746290,-73.99212000
18.50002290,-73.99212000
18.50258290,-73.99212000
18.50514290,-69.50591000
18.50770290,-73.99212000
18.51026290,-73.99212000
18.51282290,-73.99212000
18.51538290,-73.99212000
18.51794290,-69.50591000
18.52050290,-73.99212000
18.52306290,-69.50591000
18.52562290,-73.99212000
18.52818290,-69.50591000
18.53074290,-69.50591000
18.53330290,-69.50591000
18.53586290,-73.99212000
18.53842290,-73.99212000
18.54098290,-73.99212000
18.54354290,-73.99212000
18.54610290,-73.99212000
18.54866290,-73.99212000
18.55122290,-73.99212000
18.55378290,-69.50591000
18.55634290,-73.99212000
18.55890290,-69.50591000
18.56146290,-69.50591000
18.56402290,-69.50591000
18.56658290,-73.99212000
18.56914290,-69.50591000
18.57170290,-69.50591000
18.57426290,-69.50591000
18.57682290,-69.50591000
18.57938290,-69.50591000
18.58194290,-73.99212000
18.58450290,-73.99212000
18.58706290,-69.50591000
18.58962290,-73.99212000
18.59218290,-69.50591000
18.59474290,-69.50591000
18.59730290,-69.50591000
18.59986290,-69.50591000
18.60242290,-69.50591000
18.60498290,-69.50591000
18.60754290,-69.50591000
18.61010290,-73.99212000
18.61266290,-69.50591000
18.61522290,-69.50591000
18.61778290,-69.50591000
18.62034290,-73.99212000
18.62290290,-69.50591000
18.62546290,-73.99212000
18.62802290,-69.50591000
18.63058290,-73.99212000
18.63314290,-73.99212000
18.63570290,-69.50591000
18.63826290,-69.50591000
18.64082290,-69.50591000
18.64338290,-69.50591000
18.64594290,-69.50591000
18.64850290,-73.99212000
18.65106290,-73.99212000
18.65362290,-73.99212000
18.65618290,-69.50591000
18.65874290,-69.50591000
18.66130290,-69.50591000
18.66386290,-69.50591000
18.66642290,-69.50591000
18.66898290,-69.50591000
18.67154290,-73.99212000
18.67410290,-73.99212000
18.67666290,-69.50591000
18.67922290,-69.50591000
