Time,Invert B
(ms),(mV)

-1.32147002,-78.46308000
-1.31891002,-78.46308000
-1.31635002,-69.50591000
-1.31379002,-73.99212000
-1.31123002,-73.99212000
-1.30867002,-73.99212000
-1.30611002,-73.99212000
-1.30355002,-73.99212000
-1.30099002,-78.46308000
-1.29843002,-78.46308000
-1.29587002,-73.99212000
-1.29331002,-73.99212000
-1.29075002,-78.46308000
-1.28819002,-73.99212000
-1.28563002,-73.99212000
-1.28307002,-73.99212000
-1.28051002,-78.46308000
-1.27795002,-78.46308000
-1.27539002,-78.46308000
-1.27283002,-73.99212000
-1.27027002,-78.46308000
-1.26771002,-73.99212000
-1.26515002,-73.99212000
-1.26259002,-73.99212000
-1.26003002,-73.99212000
-1.25747002,-73.99212000
-1.25491002,-73.99212000
-1.25235002,-73.99212000
-1.24979002,-73.99212000
-1.24723002,-78.46308000
-1.24467002,-78.46308000
-1.24211002,-73.99212000
-1.23955002,-73.99212000
-1.23699002,-78.46308000
-1.23443002,-73.99212000
-1.23187002,-73.99212000
-1.22931002,-73.99212000
-1.22675002,-78.46308000
-1.22419002,-73.99212000
-1.22163002,-73.99212000
-1.21907002,-73.99212000
-1.21651002,-69.50591000
-1.21395002,-73.99212000
-1.21139002,-73.99212000
-1.20883002,-73.99212000
-1.20627002,-73.99212000
-1.20371002,-73.99212000
-1.20115002,-73.99212000
-1.19859002,-73.99212000
-1.19603002,-73.99212000
-1.19347002,-73.99212000
-1.19091002,-73.99212000
-1.18835002,-73.99212000
-1.18579002,-73.99212000
-1.18323002,-73.99212000
-1.18067002,-73.99212000
-1.17811002,-73.99212000
-1.17555002,-73.99212000
-1.17299002,-73.99212000
-1.17043002,-73.99212000
-1.16787002,-73.99212000
-1.16531002,-78.46308000
-1.16275002,-73.99212000
-1.16019002,-73.99212000
-1.15763002,-73.99212000
-1.15507002,-73.99212000
-1.15251002,-69.50591000
-1.14995002,-73.99212000
-1.14739002,-73.99212000
-1.14483002,-73.99212000
-1.14227002,-69.50591000
-1.13971002,-73.99212000
-1.13715002,-73.99212000
-1.13459002,-73.99212000
-1.13203002,-73.99212000
-1.12947002,-69.50591000
-1.12691002,-73.99212000
-1.12435002,-73.99212000
-1.12179002,-73.99212000
-1.11923002,-73.99212000
-1.11667002,-73.99212000
-1.11411002,-73.99212000
-1.11155002,-73.99212000
-1.10899002,-73.99212000
-1.10643002,-73.99212000
-1.10387002,-73.99212000
-1.10131002,-73.99212000
-1.09875002,-69.50591000
-1.09619002,-73.99212000
-1.09363002,-73.99212000
-1.09107002,-73.99212000
-1.08851002,-73.99212000
-1.08595002,-73.99212000
-1.08339002,-73.99212000
-1.08083002,-73.99212000
-1.07827002,-73.99212000
-1.07571002,-78.46308000
-1.07315002,-73.99212000
-1.07059002,-73.99212000
-1.06803002,-73.99212000
-1.06547002,-73.99212000
-1.06291002,-73.99212000
-1.06035002,-78.46308000
-1.05779002,-73.99212000
-1.05523002,-73.99212000
-1.05267002,-73.99212000
-1.05011002,-73.99212000
-1.04755002,-73.99212000
-1.04499002,-73.99212000
-1.04243002,-73.99212000
-1.03987002,-73.99212000
-1.03731002,-73.99212000
-1.03475002,-73.99212000
-1.03219002,-73.99212000
-1.02963002,-78.46308000
-1.02707002,-73.99212000
-1.02451002,-73.99212000
-1.02195002,-73.99212000
-1.01939002,-73.99212000
-1.01683002,-73.99212000
-1.01427002,-73.99212000
-1.01171002,-73.99212000
-1.00915002,-73.99212000
-1.00659002,-73.99212000
-1.00403002,-73.99212000
-1.00147002,-73.99212000
-0.99891002,-78.46308000
-0.99635002,-69.50591000
-0.99379002,-73.99212000
-0.99123002,-73.99212000
-0.98867002,-78.46308000
-0.98611002,-73.99212000
-0.98355002,-73.99212000
-0.98099002,-73.99212000
-0.97843002,-78.46308000
-0.97587002,-73.99212000
-0.97331002,-73.99212000
-0.97075002,-73.99212000
-0.96819002,-73.99212000
-0.96563002,-73.99212000
-0.96307002,-73.99212000
-0.96051002,-73.99212000
-0.95795002,-73.99212000
-0.95539002,-69.50591000
-0.95283002,-73.99212000
-0.95027002,-73.99212000
-0.94771002,-73.99212000
-0.94515002,-78.46308000
-0.94259002,-73.99212000
-0.94003002,-73.99212000
-0.93747002,-73.99212000
-0.93491002,-73.99212000
-0.93235002,-73.99212000
-0.92979002,-78.46308000
-0.92723002,-73.99212000
-0.92467002,-78.46308000
-0.92211002,-78.46308000
-0.91955002,-78.46308000
-0.91699002,-73.99212000
-0.91443002,-78.46308000
-0.91187002,-73.99212000
-0.90931002,-73.99212000
-0.90675002,-78.46308000
-0.90419002,-73.99212000
-0.90163002,-73.99212000
-0.89907002,-73.99212000
-0.89651002,-73.99212000
-0.89395002,-73.99212000
-0.89139002,-73.99212000
-0.88883002,-73.99212000
-0.88627002,-78.46308000
-0.88371002,-73.99212000
-0.88115002,-73.99212000
-0.87859002,-78.46308000
-0.87603002,-73.99212000
-0.87347002,-78.46308000
-0.87091002,-78.46308000
-0.86835002,-73.99212000
-0.86579002,-73.99212000
-0.86323002,-73.99212000
-0.86067002,-73.99212000
-0.85811002,-69.50591000
-0.85555002,-78.46308000
-0.85299002,-78.46308000
-0.85043002,-78.46308000
-0.84787002,-73.99212000
-0.84531002,-78.46308000
-0.84275002,-73.99212000
-0.84019002,-78.46308000
-0.83763002,-78.46308000
-0.83507002,-73.99212000
-0.83251002,-73.99212000
-0.82995002,-73.99212000
-0.82739002,-73.99212000
-0.82483002,-73.99212000
-0.82227002,-78.46308000
-0.81971002,-73.99212000
-0.81715002,-73.99212000
-0.81459002,-78.46308000
-0.81203002,-82.93404000
-0.80947002,-78.46308000
-0.80691002,-69.50591000
-0.80435002,-96.34693000
-0.80179002,-123.17270000
-0.79923002,-141.07180000
-0.79667002,-150.01370000
-0.79411002,-158.95570000
-0.79155002,-172.36850000
-0.78899002,-176.83950000
-0.78643002,-185.78140000
-0.78387002,-194.73860000
-0.78131002,-199.20960000
-0.77875002,-203.68050000
-0.77619002,-208.15150000
-0.77363002,-212.62240000
-0.77107002,-217.09340000
-0.76851002,-221.56440000
-0.76595002,-226.03530000
-0.76339002,-230.50630000
-0.76083002,-230.50630000
-0.75827002,-234.97720000
-0.75571002,-239.44820000
-0.75315002,-239.44820000
-0.75059002,-239.44820000
-0.74803002,-243.91920000
-0.74547002,-243.91920000
-0.74291002,-243.91920000
-0.74035002,-248.40540000
-0.73779002,-243.91920000
-0.73523002,-248.40540000
-0.73267002,-248.40540000
-0.73011002,-248.40540000
-0.72755002,-248.40540000
-0.72499002,-248.40540000
-0.72243002,-248.40540000
-0.71987002,-243.91920000
-0.71731002,-243.91920000
-0.71475002,-243.91920000
-0.71219002,-239.44820000
-0.70963002,-239.44820000
-0.70707002,-239.44820000
-0.70451002,-239.44820000
-0.70195002,-239.44820000
-0.69939002,-230.50630000
-0.69683002,-230.50630000
-0.69427002,-230.50630000
-0.69171002,-226.03530000
-0.68915002,-226.03530000
-0.68659002,-221.56440000
-0.68403002,-221.56440000
-0.68147002,-217.09340000
-0.67891002,-212.62240000
-0.67635002,-212.62240000
-0.67379002,-208.15150000
-0.67123002,-203.68050000
-0.66867002,-203.68050000
-0.66611002,-199.20960000
-0.66355002,-194.73860000
-0.66099002,-194.73860000
-0.65843002,-190.26760000
-0.65587002,-185.78140000
-0.65331002,-185.78140000
-0.65075002,-181.31050000
-0.64819002,-176.83950000
-0.64563002,-176.83950000
-0.64307002,-172.36850000
-0.64051002,-167.89760000
-0.63795002,-163.42660000
-0.63539002,-163.42660000
-0.63283002,-158.95570000
-0.63027002,-158.95570000
-0.62771002,-154.48470000
-0.62515002,-150.01370000
-0.62259002,-150.01370000
-0.62003002,-141.07180000
-0.61747002,-141.07180000
-0.61491002,-141.07180000
-0.61235002,-136.60080000
-0.60979002,-132.12990000
-0.60723002,-132.12990000
-0.60467002,-127.64370000
-0.60211002,-123.17270000
-0.59955002,-118.70170000
-0.59699002,-118.70170000
-0.59443002,-114.23080000
-0.59187002,-109.75980000
-0.58931002,-109.75980000
-0.58675002,-105.28880000
-0.58419002,-105.28880000
-0.58163002,-100.81790000
-0.57907002,-96.34693000
-0.57651002,-96.34693000
-0.57395002,-96.34693000
-0.57139002,-91.87596000
-0.56883002,-87.40501000
-0.56627002,-87.40501000
-0.56371002,-87.40501000
-0.56115002,-82.93404000
-0.55859002,-78.46308000
-0.55603002,-78.46308000
-0.55347002,-78.46308000
-0.55091002,-73.99212000
-0.54835002,-69.50591000
-0.54579002,-69.50591000
-0.54323002,-65.03493000
-0.54067002,-65.03493000
-0.53811002,-65.03493000
-0.53555002,-60.56398000
-0.53299002,-60.56398000
-0.53043002,-56.09302000
-0.52787002,-56.09302000
-0.52531002,-51.62206000
-0.52275002,-51.62206000
-0.52019002,-51.62206000
-0.51763002,-47.15109000
-0.51507002,-47.15109000
-0.51251002,-47.15109000
-0.50995002,-42.68013000
-0.50739002,-42.68013000
-0.50483002,-42.68013000
-0.50227002,-38.20917000
-0.49971002,-38.20917000
-0.49715002,-33.73821000
-0.49459002,-33.73821000
-0.49203002,-33.73821000
-0.48947002,-33.73821000
-0.48691002,-33.73821000
-0.48435002,-29.26725000
-0.48179002,-33.73821000
-0.47923002,-29.26725000
-0.47667002,-29.26725000
-0.47411002,-29.26725000
-0.47155002,-24.79629000
-0.46899002,-24.79629000
-0.46643002,-24.79629000
-0.46387002,-24.79629000
-0.46131002,-24.79629000
-0.45875002,-24.79629000
-0.45619002,-24.79629000
-0.45363002,-20.32533000
-0.45107002,-20.32533000
-0.44851002,-15.85437000
-0.44595002,-15.85437000
-0.44339002,-15.85437000
-0.44083002,-15.85437000
-0.43827002,-15.85437000
-0.43571002,-15.85437000
-0.43315002,-15.85437000
-0.43059002,-15.85437000
-0.42803002,-15.85437000
-0.42547002,-11.38340000
-0.42291002,-11.38340000
-0.42035002,-15.85437000
-0.41779002,-11.38340000
-0.41523002,-11.38340000
-0.41267002,-11.38340000
-0.41011002,-11.38340000
-0.40755002,-11.38340000
-0.40499002,-11.38340000
-0.40243002,-11.38340000
-0.39987002,-11.38340000
-0.39731002,-6.91244200
-0.39475002,-6.91244200
-0.39219002,-6.91244200
-0.38963002,-6.91244200
-0.38707002,-6.91244200
-0.38451002,-6.91244200
-0.38195002,-6.91244200
-0.37939002,-6.91244200
-0.37683002,-6.91244200
-0.37427002,-6.91244200
-0.37171002,-6.91244200
-0.36915002,-6.91244200
-0.36659002,-6.91244200
-0.36403002,-6.91244200
-0.36147002,-6.91244200
-0.35891002,-6.91244200
-0.35635002,-6.91244200
-0.35379002,-6.91244200
-0.35123002,-6.91244200
-0.34867002,-6.91244200
-0.34611002,-6.91244200
-0.34355002,-6.91244200
-0.34099002,-6.91244200
-0.33843002,-6.91244200
-0.33587002,-11.38340000
-0.33331002,-11.38340000
-0.33075002,-6.91244200
-0.32819002,-6.91244200
-0.32563002,-6.91244200
-0.32307002,-6.91244200
-0.32051002,-6.91244200
-0.31795002,-6.91244200
-0.31539002,-11.38340000
-0.31283002,-11.38340000
-0.31027002,-11.38340000
-0.30771002,-11.38340000
-0.30515002,-11.38340000
-0.30259002,-11.38340000
-0.30003002,-11.38340000
-0.29747002,-11.38340000
-0.29491002,-11.38340000
-0.29235002,-6.91244200
-0.28979002,10.97140000
-0.28723002,91.46397000
-0.28467002,189.85560000
-0.28211002,261.40630000
-0.27955002,315.07310000
-0.27699002,350.85600000
-0.27443002,382.15270000
-0.27187002,404.52280000
-0.26931002,431.34860000
-0.26675002,449.24770000
-0.26419002,462.66060000
-0.26163002,476.07350000
-0.25907002,493.95730000
-0.25651002,Infinity
-0.25395002,Infinity
-0.25139002,Infinity
-0.24883002,Infinity
-0.24627002,Infinity
-0.24371002,Infinity
-0.24115002,Infinity
-0.23859002,Infinity
-0.23603002,Infinity
-0.23347002,Infinity
-0.23091002,Infinity
-0.22835002,Infinity
-0.22579002,Infinity
-0.22323002,Infinity
-0.22067002,Infinity
-0.21811002,Infinity
-0.21555002,Infinity
-0.21299002,Infinity
-0.21043002,Infinity
-0.20787002,Infinity
-0.20531002,Infinity
-0.20275002,Infinity
-0.20019002,Infinity
-0.19763002,Infinity
-0.19507002,Infinity
-0.19251002,Infinity
-0.18995002,Infinity
-0.18739002,Infinity
-0.18483002,Infinity
-0.18227002,Infinity
-0.17971002,Infinity
-0.17715002,Infinity
-0.17459002,Infinity
-0.17203002,Infinity
-0.16947002,Infinity
-0.16691002,Infinity
-0.16435002,Infinity
-0.16179002,Infinity
-0.15923002,Infinity
-0.15667002,Infinity
-0.15411002,Infinity
-0.15155002,493.95730000
-0.14899002,485.01540000
-0.14643002,476.07350000
-0.14387002,471.60250000
-0.14131002,462.66060000
-0.13875002,449.24770000
-0.13619002,440.29050000
-0.13363002,431.34860000
-0.13107002,422.40670000
-0.12851002,413.46470000
-0.12595002,404.52280000
-0.12339002,395.58090000
-0.12083002,386.63900000
-0.11827002,377.68180000
-0.11571002,364.26890000
-0.11315002,359.79790000
-0.11059002,346.38510000
-0.10803002,337.44310000
-0.10547002,328.50120000
-0.10291002,315.07310000
-0.10035002,310.60210000
-0.09779002,297.18920000
-0.09523002,288.24730000
-0.09267002,279.30540000
-0.09011002,270.36350000
-0.08755002,261.40630000
-0.08499002,252.46440000
-0.08243002,243.52240000
-0.07987002,234.58050000
-0.07731002,225.63860000
-0.07475002,216.69670000
-0.07219002,207.73950000
-0.06963002,198.79760000
-0.06707002,189.85560000
-0.06451002,180.91370000
-0.06195002,171.97180000
-0.05939002,163.02990000
-0.05683002,154.07270000
-0.05427002,145.13080000
-0.05171002,136.18880000
-0.04915002,131.71790000
-0.04659002,122.77600000
-0.04403002,113.83400000
-0.04147002,109.36310000
-0.03891002,100.42120000
-0.03635002,91.46397000
-0.03379002,82.52204000
-0.03123002,73.58012000
-0.02867002,69.10916000
-0.02611002,60.16724000
-0.02355002,55.69627000
-0.02099002,46.75435000
-0.01843002,37.79717000
-0.01587002,33.32621000
-0.01331002,24.38429000
-0.01075002,19.91333000
-0.00819002,10.97140000
-0.00563002,6.50044200
-0.00307002,2.02948100
-0.00051002,-6.91244200
0.00204998,-15.85437000
0.00460998,-15.85437000
0.00716998,-24.79629000
0.00972998,-33.73821000
0.01228998,-38.20917000
0.01484998,-42.68013000
0.01740998,-51.62206000
0.01996998,-51.62206000
0.02252998,-60.56398000
0.02508998,-65.03493000
0.02764998,-69.50591000
0.03020998,-78.46308000
0.03276998,-82.93404000
0.03532998,-87.40501000
0.03788998,-87.40501000
0.04044998,-91.87596000
0.04300998,-100.81790000
0.04556998,-105.28880000
0.04812998,-109.75980000
0.05068998,-114.23080000
0.05324998,-118.70170000
0.05580998,-123.17270000
0.05836998,-123.17270000
0.06092998,-132.12990000
0.06348998,-132.12990000
0.06604998,-141.07180000
0.06860998,-141.07180000
0.07116998,-145.54280000
0.07372998,-150.01370000
0.07628998,-150.01370000
0.07884998,-158.95570000
0.08140998,-158.95570000
0.08396998,-163.42660000
0.08652998,-167.89760000
0.08908998,-167.89760000
0.09164998,-172.36850000
0.09420998,-176.83950000
0.09676998,-176.83950000
0.09932998,-176.83950000
0.10188998,-185.78140000
0.10444998,-185.78140000
0.10700998,-190.26760000
0.10956998,-190.26760000
0.11212998,-194.73860000
0.11468998,-194.73860000
0.11724998,-199.20960000
0.11980998,-203.68050000
0.12236998,-203.68050000
0.12492998,-203.68050000
0.12748998,-208.15150000
0.13004998,-208.15150000
0.13260998,-212.62240000
0.13516998,-212.62240000
0.13772998,-217.09340000
0.14028998,-217.09340000
0.14284998,-221.56440000
0.14540998,-221.56440000
0.14796998,-221.56440000
0.15052998,-226.03530000
0.15308998,-226.03530000
0.15564998,-230.50630000
0.15820998,-230.50630000
0.16076998,-230.50630000
0.16332998,-230.50630000
0.16588998,-234.97720000
0.16844998,-234.97720000
0.17100998,-234.97720000
0.17356998,-239.44820000
0.17612998,-239.44820000
0.17868998,-239.44820000
0.18124998,-243.91920000
0.18380998,-239.44820000
0.18636998,-243.91920000
0.18892998,-243.91920000
0.19148998,-243.91920000
0.19404998,-243.91920000
0.19660998,-248.40540000
0.19916998,-248.40540000
0.20172998,-248.40540000
0.20428998,-248.40540000
0.20684998,-248.40540000
0.20940998,-248.40540000
0.21196997,-248.40540000
0.21452997,-252.87640000
0.21708997,-248.40540000
0.21964997,-252.87640000
0.22220997,-248.40540000
0.22476997,-252.87640000
0.22732997,-252.87640000
0.22988997,-252.87640000
0.23244997,-257.34730000
0.23500997,-257.34730000
0.23756997,-257.34730000
0.24012997,-257.34730000
0.24268997,-257.34730000
0.24524997,-257.34730000
0.24780997,-257.34730000
0.25036997,-257.34730000
0.25292997,-257.34730000
0.25548997,-257.34730000
0.25804997,-257.34730000
0.26060997,-257.34730000
0.26316997,-257.34730000
0.26572997,-257.34730000
0.26828997,-257.34730000
0.27084997,-257.34730000
0.27340997,-257.34730000
0.27596997,-257.34730000
0.27852997,-257.34730000
0.28108997,-257.34730000
0.28364997,-257.34730000
0.28620997,-257.34730000
0.28876997,-257.34730000
0.29132997,-257.34730000
0.29388997,-257.34730000
0.29644997,-257.34730000
0.29900997,-257.34730000
0.30156997,-257.34730000
0.30412997,-257.34730000
0.30668997,-257.34730000
0.30924997,-257.34730000
0.31180997,-257.34730000
0.31436997,-257.34730000
0.31692997,-252.87640000
0.31948997,-257.34730000
0.32204997,-252.87640000
0.32460997,-257.34730000
0.32716997,-257.34730000
0.32972997,-252.87640000
0.33228997,-252.87640000
0.33484997,-248.40540000
0.33740997,-248.40540000
0.33996997,-252.87640000
0.34252997,-252.87640000
0.34508997,-252.87640000
0.34764997,-248.40540000
0.35020997,-248.40540000
0.35276997,-248.40540000
0.35532997,-248.40540000
0.35788997,-248.40540000
0.36044997,-248.40540000
0.36300997,-248.40540000
0.36556997,-248.40540000
0.36812997,-248.40540000
0.37068997,-248.40540000
0.37324997,-243.91920000
0.37580997,-243.91920000
0.37836997,-243.91920000
0.38092997,-243.91920000
0.38348997,-243.91920000
0.38604997,-239.44820000
0.38860997,-243.91920000
0.39116997,-243.91920000
0.39372997,-239.44820000
0.39628997,-243.91920000
0.39884997,-239.44820000
0.40140997,-239.44820000
0.40396997,-239.44820000
0.40652997,-239.44820000
0.40908997,-239.44820000
0.41164997,-239.44820000
0.41420997,-239.44820000
0.41676997,-234.97720000
0.41932997,-234.97720000
0.42188997,-234.97720000
0.42444997,-234.97720000
0.42700997,-230.50630000
0.42956997,-234.97720000
0.43212997,-230.50630000
0.43468997,-230.50630000
0.43724997,-230.50630000
0.43980997,-230.50630000
0.44236997,-230.50630000
0.44492997,-230.50630000
0.44748997,-230.50630000
0.45004997,-230.50630000
0.45260997,-230.50630000
0.45516997,-226.03530000
0.45772997,-226.03530000
0.46028997,-226.03530000
0.46284997,-226.03530000
0.46540997,-221.56440000
0.46796997,-226.03530000
0.47052997,-221.56440000
0.47308997,-221.56440000
0.47564997,-221.56440000
0.47820997,-221.56440000
0.48076997,-221.56440000
0.48332997,-221.56440000
0.48588997,-221.56440000
0.48844997,-221.56440000
0.49100997,-217.09340000
0.49356997,-217.09340000
0.49612997,-217.09340000
0.49868997,-217.09340000
0.50124997,-212.62240000
0.50380997,-212.62240000
0.50636997,-212.62240000
0.50892997,-212.62240000
0.51148997,-212.62240000
0.51404997,-212.62240000
0.51660997,-212.62240000
0.51916997,-212.62240000
0.52172997,-208.15150000
0.52428997,-212.62240000
0.52684997,-208.15150000
0.52940997,-208.15150000
0.53196997,-208.15150000
0.53452997,-208.15150000
0.53708997,-208.15150000
0.53964997,-203.68050000
0.54220997,-203.68050000
0.54476997,-203.68050000
0.54732997,-203.68050000
0.54988997,-203.68050000
0.55244997,-203.68050000
0.55500997,-203.68050000
0.55756997,-203.68050000
0.56012997,-203.68050000
0.56268997,-199.20960000
0.56524997,-199.20960000
0.56780997,-194.73860000
0.57036997,-194.73860000
0.57292997,-194.73860000
0.57548997,-194.73860000
0.57804997,-194.73860000
0.58060997,-194.73860000
0.58316997,-194.73860000
0.58572997,-194.73860000
0.58828997,-194.73860000
0.59084997,-190.26760000
0.59340997,-194.73860000
0.59596997,-190.26760000
0.59852997,-190.26760000
0.60108997,-190.26760000
0.60364997,-190.26760000
0.60620997,-190.26760000
0.60876997,-190.26760000
0.61132997,-185.78140000
0.61388997,-185.78140000
0.61644997,-185.78140000
0.61900997,-185.78140000
0.62156997,-185.78140000
0.62412997,-185.78140000
0.62668997,-185.78140000
0.62924997,-181.31050000
0.63180997,-181.31050000
0.63436997,-181.31050000
0.63692997,-181.31050000
0.63948997,-181.31050000
0.64204997,-181.31050000
0.64460997,-176.83950000
0.64716997,-176.83950000
0.64972997,-176.83950000
0.65228997,-176.83950000
0.65484997,-176.83950000
0.65740997,-176.83950000
0.65996997,-176.83950000
0.66252997,-176.83950000
0.66508997,-176.83950000
0.66764997,-176.83950000
0.67020997,-172.36850000
0.67276997,-176.83950000
0.67532997,-172.36850000
0.67788997,-172.36850000
0.68044997,-172.36850000
0.68300997,-172.36850000
0.68556997,-167.89760000
0.68812997,-167.89760000
0.69068997,-172.36850000
0.69324997,-167.89760000
0.69580997,-172.36850000
0.69836997,-167.89760000
0.70092997,-167.89760000
0.70348997,-167.89760000
0.70604997,-167.89760000
0.70860997,-167.89760000
0.71116997,-167.89760000
0.71372997,-167.89760000
0.71628997,-163.42660000
0.71884997,-163.42660000
0.72140997,-163.42660000
0.72396997,-163.42660000
0.72652997,-163.42660000
0.72908997,-163.42660000
0.73164997,-158.95570000
0.73420997,-158.95570000
0.73676997,-163.42660000
0.73932997,-158.95570000
0.74188997,-158.95570000
0.74444997,-158.95570000
0.74700997,-158.95570000
0.74956997,-158.95570000
0.75212997,-158.95570000
0.75468997,-158.95570000
0.75724997,-158.95570000
0.75980997,-158.95570000
0.76236997,-158.95570000
0.76492997,-154.48470000
0.76748997,-158.95570000
0.77004997,-154.48470000
0.77260997,-154.48470000
0.77516997,-154.48470000
0.77772997,-154.48470000
0.78028997,-154.48470000
0.78284997,-154.48470000
0.78540997,-150.01370000
0.78796997,-150.01370000
0.79052997,-150.01370000
0.79308997,-150.01370000
0.79564997,-150.01370000
0.79820997,-150.01370000
0.80076997,-150.01370000
0.80332997,-150.01370000
0.80588997,-150.01370000
0.80844997,-150.01370000
0.81100997,-150.01370000
0.81356997,-150.01370000
0.81612997,-145.54280000
0.81868997,-145.54280000
0.82124997,-150.01370000
0.82380997,-141.07180000
0.82636997,-145.54280000
0.82892997,-145.54280000
0.83148997,-141.07180000
0.83404997,-141.07180000
0.83660997,-145.54280000
0.83916997,-141.07180000
0.84172997,-141.07180000
0.84428997,-141.07180000
0.84684997,-141.07180000
0.84940997,-141.07180000
0.85196997,-141.07180000
0.85452997,-141.07180000
0.85708997,-141.07180000
0.85964997,-141.07180000
0.86220997,-141.07180000
0.86476997,-141.07180000
0.86732997,-136.60080000
0.86988997,-136.60080000
0.87244997,-136.60080000
0.87500997,-136.60080000
0.87756997,-136.60080000
0.88012997,-136.60080000
0.88268997,-136.60080000
0.88524997,-136.60080000
0.88780997,-132.12990000
0.89036997,-136.60080000
0.89292997,-132.12990000
0.89548997,-132.12990000
0.89804997,-132.12990000
0.90060997,-132.12990000
0.90316997,-132.12990000
0.90572997,-132.12990000
0.90828997,-132.12990000
0.91084997,-132.12990000
0.91340997,-132.12990000
0.91596997,-127.64370000
0.91852997,-132.12990000
0.92108997,-127.64370000
0.92364997,-132.12990000
0.92620997,-127.64370000
0.92876997,-123.17270000
0.93132997,-123.17270000
0.93388997,-132.12990000
0.93644997,-123.17270000
0.93900997,-123.17270000
0.94156997,-123.17270000
0.94412997,-123.17270000
0.94668997,-123.17270000
0.94924997,-123.17270000
0.95180997,-123.17270000
0.95436997,-123.17270000
0.95692997,-123.17270000
0.95948997,-123.17270000
0.96204997,-123.17270000
0.96460997,-123.17270000
0.96716997,-123.17270000
0.96972997,-123.17270000
0.97228997,-123.17270000
0.97484997,-118.70170000
0.97740997,-118.70170000
0.97996997,-118.70170000
0.98252997,-118.70170000
0.98508997,-118.70170000
0.98764997,-118.70170000
0.99020997,-118.70170000
0.99276997,-118.70170000
0.99532997,-118.70170000
0.99788997,-118.70170000
1.00044997,-118.70170000
1.00300997,-118.70170000
1.00556997,-118.70170000
1.00812997,-118.70170000
1.01068997,-114.23080000
1.01324997,-114.23080000
1.01580997,-114.23080000
1.01836997,-114.23080000
1.02092997,-114.23080000
1.02348997,-114.23080000
1.02604997,-114.23080000
1.02860997,-114.23080000
1.03116997,-114.23080000
1.03372997,-114.23080000
1.03628997,-114.23080000
1.03884997,-114.23080000
1.04140997,-114.23080000
1.04396997,-114.23080000
1.04652997,-114.23080000
1.04908997,-109.75980000
1.05164997,-114.23080000
1.05420997,-109.75980000
1.05676997,-109.75980000
1.05932997,-114.23080000
1.06188997,-109.75980000
1.06444997,-109.75980000
1.06700997,-109.75980000
1.06956997,-109.75980000
1.07212997,-105.28880000
1.07468997,-105.28880000
1.07724997,-105.28880000
1.07980997,-109.75980000
1.08236997,-105.28880000
1.08492997,-109.75980000
1.08748997,-105.28880000
1.09004997,-105.28880000
1.09260997,-105.28880000
1.09516997,-105.28880000
1.09772997,-105.28880000
1.10028997,-105.28880000
1.10284997,-105.28880000
1.10540997,-105.28880000
1.10796997,-105.28880000
1.11052997,-105.28880000
1.11308997,-105.28880000
1.11564997,-105.28880000
1.11820997,-105.28880000
1.12076997,-105.28880000
1.12332997,-105.28880000
1.12588997,-100.81790000
1.12844997,-105.28880000
1.13100997,-105.28880000
1.13356997,-105.28880000
1.13612997,-105.28880000
1.13868997,-105.28880000
1.14124997,-100.81790000
1.14380997,-100.81790000
1.14636997,-100.81790000
1.14892997,-100.81790000
1.15148997,-100.81790000
1.15404997,-100.81790000
1.15660997,-100.81790000
1.15916997,-100.81790000
1.16172997,-100.81790000
1.16428997,-100.81790000
1.16684997,-100.81790000
1.16940997,-100.81790000
1.17196997,-100.81790000
1.17452997,-100.81790000
1.17708997,-96.34693000
1.17964997,-100.81790000
1.18220997,-100.81790000
1.18476997,-96.34693000
1.18732997,-96.34693000
1.18988997,-96.34693000
1.19244997,-96.34693000
1.19500997,-96.34693000
1.19756997,-96.34693000
1.20012997,-96.34693000
1.20268997,-96.34693000
1.20524997,-96.34693000
1.20780997,-96.34693000
1.21036997,-96.34693000
1.21292997,-96.34693000
1.21548997,-96.34693000
1.21804997,-96.34693000
1.22060997,-96.34693000
1.22316997,-96.34693000
1.22572997,-96.34693000
1.22828997,-96.34693000
1.23084997,-96.34693000
1.23340997,-96.34693000
1.23596997,-96.34693000
1.23852997,-96.34693000
1.24108997,-96.34693000
1.24364997,-91.87596000
1.24620997,-96.34693000
1.24876997,-91.87596000
1.25132997,-96.34693000
1.25388997,-91.87596000
1.25644997,-91.87596000
1.25900997,-96.34693000
1.26156997,-91.87596000
1.26412997,-91.87596000
1.26668997,-91.87596000
1.26924997,-96.34693000
1.27180997,-91.87596000
1.27436997,-91.87596000
1.27692997,-91.87596000
1.27948997,-87.40501000
1.28204997,-91.87596000
1.28460997,-91.87596000
1.28716997,-87.40501000
1.28972997,-91.87596000
1.29228997,-91.87596000
1.29484997,-91.87596000
1.29740997,-87.40501000
1.29996997,-87.40501000
1.30252997,-91.87596000
1.30508997,-91.87596000
1.30764997,-87.40501000
1.31020997,-87.40501000
1.31276997,-87.40501000
1.31532997,-87.40501000
1.31788997,-87.40501000
1.32044997,-87.40501000
1.32300997,-87.40501000
1.32556997,-87.40501000
1.32812997,-87.40501000
1.33068997,-87.40501000
1.33324997,-87.40501000
1.33580997,-87.40501000
1.33836997,-87.40501000
1.34092997,-87.40501000
1.34348997,-87.40501000
1.34604997,-87.40501000
1.34860997,-87.40501000
1.35116997,-87.40501000
1.35372997,-87.40501000
1.35628997,-87.40501000
1.35884997,-87.40501000
1.36140997,-87.40501000
1.36396997,-87.40501000
1.36652997,-87.40501000
1.36908997,-87.40501000
1.37164997,-87.40501000
1.37420997,-87.40501000
1.37676997,-87.40501000
1.37932997,-87.40501000
1.38188997,-87.40501000
1.38444997,-87.40501000
1.38700997,-87.40501000
1.38956997,-87.40501000
1.39212997,-87.40501000
1.39468997,-87.40501000
1.39724997,-87.40501000
1.39980997,-87.40501000
1.40236997,-87.40501000
1.40492997,-87.40501000
1.40748997,-87.40501000
1.41004997,-87.40501000
1.41260997,-87.40501000
1.41516997,-87.40501000
1.41772997,-87.40501000
1.42028997,-87.40501000
1.42284997,-87.40501000
1.42540997,-87.40501000
1.42796997,-82.93404000
1.43052997,-87.40501000
1.43308997,-82.93404000
1.43564997,-87.40501000
1.43820997,-87.40501000
1.44076997,-87.40501000
1.44332997,-87.40501000
1.44588997,-82.93404000
1.44844997,-82.93404000
1.45100997,-87.40501000
1.45356997,-82.93404000
1.45612997,-82.93404000
1.45868997,-82.93404000
1.46124997,-82.93404000
1.46380997,-87.40501000
1.46636997,-82.93404000
1.46892997,-82.93404000
1.47148997,-82.93404000
1.47404997,-82.93404000
1.47660997,-82.93404000
1.47916997,-82.93404000
1.48172997,-82.93404000
1.48428997,-82.93404000
1.48684997,-82.93404000
1.48940997,-82.93404000
1.49196997,-82.93404000
1.49452997,-82.93404000
1.49708997,-82.93404000
1.49964997,-78.46308000
1.50220997,-82.93404000
1.50476997,-82.93404000
1.50732997,-82.93404000
1.50988997,-82.93404000
1.51244997,-82.93404000
1.51500997,-82.93404000
1.51756997,-82.93404000
1.52012997,-82.93404000
1.52268997,-82.93404000
1.52524997,-82.93404000
1.52780997,-82.93404000
1.53036997,-82.93404000
1.53292997,-82.93404000
1.53548997,-82.93404000
1.53804997,-82.93404000
1.54060997,-82.93404000
1.54316997,-82.93404000
1.54572997,-78.46308000
1.54828997,-78.46308000
1.55084997,-82.93404000
1.55340997,-78.46308000
1.55596997,-78.46308000
1.55852997,-78.46308000
1.56108997,-78.46308000
1.56364997,-78.46308000
1.56620997,-78.46308000
1.56876997,-82.93404000
1.57132997,-78.46308000
1.57388997,-78.46308000
1.57644997,-78.46308000
1.57900997,-82.93404000
1.58156997,-82.93404000
1.58412997,-78.46308000
1.58668997,-78.46308000
1.58924997,-78.46308000
1.59180997,-78.46308000
1.59436997,-78.46308000
1.59692997,-78.46308000
1.59948997,-78.46308000
1.60204997,-78.46308000
1.60460997,-78.46308000
1.60716997,-78.46308000
1.60972997,-78.46308000
1.61228997,-78.46308000
1.61484997,-78.46308000
1.61740997,-78.46308000
1.61996997,-78.46308000
1.62252997,-78.46308000
1.62508997,-78.46308000
1.62764997,-78.46308000
1.63020997,-78.46308000
1.63276997,-78.46308000
1.63532997,-78.46308000
1.63788997,-82.93404000
1.64044997,-82.93404000
1.64300997,-78.46308000
1.64556997,-78.46308000
1.64812997,-78.46308000
1.65068997,-78.46308000
1.65324997,-78.46308000
1.65580997,-78.46308000
1.65836997,-78.46308000
1.66092997,-78.46308000
1.66348997,-78.46308000
1.66604997,-78.46308000
1.66860997,-78.46308000
1.67116997,-78.46308000
1.67372997,-78.46308000
1.67628997,-78.46308000
1.67884997,-78.46308000
1.68140997,-78.46308000
1.68396997,-78.46308000
1.68652997,-78.46308000
1.68908997,-78.46308000
1.69164997,-78.46308000
1.69420997,-78.46308000
1.69676997,-78.46308000
1.69932997,-78.46308000
1.70188997,-78.46308000
1.70444997,-78.46308000
1.70700997,-78.46308000
1.70956997,-78.46308000
1.71212997,-78.46308000
1.71468997,-78.46308000
1.71724997,-78.46308000
1.71980997,-78.46308000
1.72236997,-78.46308000
1.72492997,-78.46308000
1.72748997,-78.46308000
1.73004997,-78.46308000
1.73260997,-78.46308000
1.73516997,-78.46308000
1.73772997,-78.46308000
1.74028997,-78.46308000
1.74284997,-78.46308000
1.74540997,-78.46308000
1.74796997,-78.46308000
1.75052997,-78.46308000
1.75308997,-78.46308000
1.75564997,-73.99212000
1.75820997,-78.46308000
1.76076997,-73.99212000
1.76332997,-78.46308000
1.76588997,-73.99212000
1.76844997,-78.46308000
1.77100997,-78.46308000
1.77356997,-78.46308000
1.77612997,-78.46308000
1.77868997,-73.99212000
1.78124997,-73.99212000
1.78380997,-78.46308000
1.78636997,-73.99212000
1.78892997,-73.99212000
1.79148997,-78.46308000
1.79404997,-73.99212000
1.79660997,-73.99212000
1.79916997,-73.99212000
1.80172997,-73.99212000
1.80428997,-73.99212000
1.80684997,-73.99212000
1.80940997,-73.99212000
1.81196997,-73.99212000
1.81452997,-73.99212000
1.81708997,-73.99212000
1.81964997,-78.46308000
1.82220997,-73.99212000
1.82476997,-73.99212000
1.82732997,-73.99212000
1.82988997,-73.99212000
1.83244997,-73.99212000
1.83500997,-73.99212000
1.83756997,-73.99212000
1.84012997,-78.46308000
1.84268997,-73.99212000
1.84524997,-78.46308000
1.84780997,-73.99212000
1.85036997,-73.99212000
1.85292997,-73.99212000
1.85548997,-73.99212000
1.85804996,-73.99212000
1.86060996,-73.99212000
1.86316996,-78.46308000
1.86572996,-73.99212000
1.86828996,-69.50591000
1.87084996,-73.99212000
1.87340996,-73.99212000
1.87596996,-78.46308000
1.87852996,-73.99212000
1.88108996,-73.99212000
1.88364996,-73.99212000
1.88620996,-73.99212000
1.88876996,-73.99212000
1.89132996,-78.46308000
1.89388996,-78.46308000
1.89644996,-78.46308000
1.89900996,-73.99212000
1.90156996,-78.46308000
1.90412996,-73.99212000
1.90668996,-78.46308000
1.90924996,-73.99212000
1.91180996,-73.99212000
1.91436996,-78.46308000
1.91692996,-73.99212000
1.91948996,-73.99212000
1.92204996,-78.46308000
1.92460996,-73.99212000
1.92716996,-78.46308000
1.92972996,-78.46308000
1.93228996,-78.46308000
1.93484996,-73.99212000
1.93740996,-78.46308000
1.93996996,-78.46308000
1.94252996,-73.99212000
1.94508996,-78.46308000
1.94764996,-73.99212000
1.95020996,-73.99212000
1.95276996,-73.99212000
1.95532996,-73.99212000
1.95788996,-78.46308000
1.96044996,-73.99212000
1.96300996,-73.99212000
1.96556996,-73.99212000
1.96812996,-73.99212000
1.97068996,-78.46308000
1.97324996,-73.99212000
1.97580996,-73.99212000
1.97836996,-73.99212000
1.98092996,-78.46308000
1.98348996,-78.46308000
1.98604996,-78.46308000
1.98860996,-73.99212000
1.99116996,-73.99212000
1.99372996,-78.46308000
1.99628996,-73.99212000
1.99884996,-78.46308000
2.00140996,-78.46308000
2.00396996,-73.99212000
2.00652996,-78.46308000
2.00908996,-73.99212000
2.01164996,-78.46308000
2.01420996,-78.46308000
2.01676996,-78.46308000
2.01932996,-78.46308000
2.02188996,-73.99212000
2.02444996,-73.99212000
2.02700996,-78.46308000
2.02956996,-73.99212000
2.03212996,-78.46308000
2.03468996,-78.46308000
2.03724996,-73.99212000
2.03980996,-73.99212000
2.04236996,-73.99212000
2.04492996,-73.99212000
2.04748996,-73.99212000
2.05004996,-78.46308000
2.05260996,-73.99212000
2.05516996,-78.46308000
2.05772996,-73.99212000
2.06028996,-73.99212000
2.06284996,-73.99212000
2.06540996,-73.99212000
2.06796996,-73.99212000
2.07052996,-73.99212000
2.07308996,-73.99212000
2.07564996,-73.99212000
2.07820996,-73.99212000
2.08076996,-73.99212000
2.08332996,-73.99212000
2.08588996,-69.50591000
2.08844996,-73.99212000
2.09100996,-73.99212000
2.09356996,-69.50591000
2.09612996,-73.99212000
2.09868996,-73.99212000
2.10124996,-73.99212000
2.10380996,-73.99212000
2.10636996,-73.99212000
2.10892996,-78.46308000
2.11148996,-73.99212000
2.11404996,-73.99212000
2.11660996,-73.99212000
2.11916996,-73.99212000
2.12172996,-73.99212000
2.12428996,-73.99212000
2.12684996,-73.99212000
2.12940996,-73.99212000
2.13196996,-78.46308000
2.13452996,-78.46308000
2.13708996,-73.99212000
2.13964996,-73.99212000
2.14220996,-78.46308000
2.14476996,-78.46308000
2.14732996,-78.46308000
2.14988996,-78.46308000
2.15244996,-78.46308000
2.15500996,-78.46308000
2.15756996,-78.46308000
2.16012996,-78.46308000
2.16268996,-78.46308000
2.16524996,-78.46308000
2.16780996,-78.46308000
2.17036996,-78.46308000
2.17292996,-78.46308000
2.17548996,-78.46308000
2.17804996,-78.46308000
2.18060996,-78.46308000
2.18316996,-78.46308000
2.18572996,-78.46308000
2.18828996,-78.46308000
2.19084996,-78.46308000
2.19340996,-78.46308000
2.19596996,-82.93404000
2.19852996,-78.46308000
2.20108996,-78.46308000
2.20364996,-82.93404000
2.20620996,-82.93404000
2.20876996,-87.40501000
2.21132996,-82.93404000
2.21388996,-82.93404000
2.21644996,-82.93404000
2.21900996,-82.93404000
2.22156996,-87.40501000
2.22412996,-87.40501000
2.22668996,-87.40501000
2.22924996,-87.40501000
2.23180996,-87.40501000
2.23436996,-87.40501000
2.23692996,-87.40501000
2.23948996,-87.40501000
2.24204996,-87.40501000
2.24460996,-87.40501000
2.24716996,-87.40501000
2.24972996,-87.40501000
2.25228996,-91.87596000
2.25484996,-87.40501000
2.25740996,-87.40501000
2.25996996,-91.87596000
2.26252996,-96.34693000
2.26508996,-96.34693000
2.26764996,-96.34693000
2.27020996,-96.34693000
2.27276996,-96.34693000
2.27532996,-96.34693000
2.27788996,-96.34693000
2.28044996,-96.34693000
2.28300996,-96.34693000
2.28556996,-100.81790000
2.28812996,-96.34693000
2.29068996,-96.34693000
2.29324996,-100.81790000
2.29580996,-100.81790000
2.29836996,-100.81790000
2.30092996,-100.81790000
2.30348996,-105.28880000
2.30604996,-100.81790000
2.30860996,-105.28880000
2.31116996,-105.28880000
2.31372996,-105.28880000
2.31628996,-105.28880000
2.31884996,-105.28880000
2.32140996,-105.28880000
2.32396996,-105.28880000
2.32652996,-105.28880000
2.32908996,-105.28880000
2.33164996,-105.28880000
2.33420996,-105.28880000
2.33676996,-105.28880000
2.33932996,-105.28880000
2.34188996,-109.75980000
2.34444996,-105.28880000
2.34700996,-105.28880000
2.34956996,-109.75980000
2.35212996,-109.75980000
2.35468996,-109.75980000
2.35724996,-109.75980000
2.35980996,-109.75980000
2.36236996,-114.23080000
2.36492996,-114.23080000
2.36748996,-114.23080000
2.37004996,-114.23080000
2.37260996,-114.23080000
2.37516996,-114.23080000
2.37772996,-114.23080000
2.38028996,-114.23080000
2.38284996,-114.23080000
2.38540996,-114.23080000
2.38796996,-114.23080000
2.39052996,-114.23080000
2.39308996,-114.23080000
2.39564996,-114.23080000
2.39820996,-114.23080000
2.40076996,-114.23080000
2.40332996,-114.23080000
2.40588996,-118.70170000
2.40844996,-118.70170000
2.41100996,-114.23080000
2.41356996,-118.70170000
2.41612996,-118.70170000
2.41868996,-118.70170000
2.42124996,-118.70170000
2.42380996,-118.70170000
2.42636996,-118.70170000
2.42892996,-118.70170000
2.43148996,-118.70170000
2.43404996,-118.70170000
2.43660996,-118.70170000
2.43916996,-118.70170000
2.44172996,-118.70170000
2.44428996,-118.70170000
2.44684996,-118.70170000
2.44940996,-118.70170000
2.45196996,-118.70170000
2.45452996,-118.70170000
2.45708996,-118.70170000
2.45964996,-118.70170000
2.46220996,-118.70170000
2.46476996,-118.70170000
2.46732996,-118.70170000
2.46988996,-118.70170000
2.47244996,-118.70170000
2.47500996,-118.70170000
2.47756996,-118.70170000
2.48012996,-118.70170000
2.48268996,-118.70170000
2.48524996,-118.70170000
2.48780996,-118.70170000
2.49036996,-118.70170000
2.49292996,-118.70170000
2.49548996,-118.70170000
2.49804996,-118.70170000
2.50060996,-114.23080000
2.50316996,-118.70170000
2.50572996,-118.70170000
2.50828996,-118.70170000
2.51084996,-118.70170000
2.51340996,-118.70170000
2.51596996,-118.70170000
2.51852996,-118.70170000
2.52108996,-114.23080000
2.52364996,-118.70170000
2.52620996,-118.70170000
2.52876996,-118.70170000
2.53132996,-114.23080000
2.53388996,-114.23080000
2.53644996,-114.23080000
2.53900996,-118.70170000
2.54156996,-118.70170000
2.54412996,-118.70170000
2.54668996,-114.23080000
2.54924996,-114.23080000
2.55180996,-114.23080000
2.55436996,-114.23080000
2.55692996,-114.23080000
2.55948996,-114.23080000
2.56204996,-114.23080000
2.56460996,-114.23080000
2.56716996,-114.23080000
2.56972996,-114.23080000
2.57228996,-114.23080000
2.57484996,-114.23080000
2.57740996,-114.23080000
2.57996996,-109.75980000
2.58252996,-109.75980000
2.58508996,-114.23080000
2.58764996,-114.23080000
2.59020996,-109.75980000
2.59276996,-109.75980000
2.59532996,-109.75980000
2.59788996,-109.75980000
2.60044996,-109.75980000
2.60300996,-105.28880000
2.60556996,-109.75980000
2.60812996,-109.75980000
2.61068996,-105.28880000
2.61324996,-105.28880000
2.61580996,-105.28880000
2.61836996,-105.28880000
2.62092996,-105.28880000
2.62348996,-105.28880000
2.62604996,-105.28880000
2.62860996,-105.28880000
2.63116996,-105.28880000
2.63372996,-105.28880000
2.63628996,-105.28880000
2.63884996,-105.28880000
2.64140996,-105.28880000
2.64396996,-105.28880000
2.64652996,-105.28880000
2.64908996,-105.28880000
2.65164996,-100.81790000
2.65420996,-100.81790000
2.65676996,-100.81790000
2.65932996,-100.81790000
2.66188996,-100.81790000
2.66444996,-100.81790000
2.66700996,-100.81790000
2.66956996,-100.81790000
2.67212996,-100.81790000
2.67468996,-96.34693000
2.67724996,-96.34693000
2.67980996,-96.34693000
2.68236996,-96.34693000
2.68492996,-96.34693000
2.68748996,-96.34693000
2.69004996,-96.34693000
2.69260996,-96.34693000
2.69516996,-96.34693000
2.69772996,-91.87596000
2.70028996,-91.87596000
2.70284996,-87.40501000
2.70540996,-91.87596000
2.70796996,-91.87596000
2.71052996,-87.40501000
2.71308996,-87.40501000
2.71564996,-87.40501000
2.71820996,-87.40501000
2.72076996,-87.40501000
2.72332996,-87.40501000
2.72588996,-87.40501000
2.72844996,-87.40501000
2.73100996,-87.40501000
2.73356996,-82.93404000
2.73612996,-82.93404000
2.73868996,-82.93404000
2.74124996,-82.93404000
2.74380996,-82.93404000
2.74636996,-78.46308000
2.74892996,-78.46308000
2.75148996,-78.46308000
2.75404996,-78.46308000
2.75660996,-78.46308000
2.75916996,-78.46308000
2.76172996,-73.99212000
2.76428996,-73.99212000
2.76684996,-73.99212000
2.76940996,-73.99212000
2.77196996,-69.50591000
2.77452996,-69.50591000
2.77708996,-69.50591000
2.77964996,-69.50591000
2.78220996,-69.50591000
2.78476996,-69.50591000
2.78732996,-69.50591000
2.78988996,-65.03493000
2.79244996,-65.03493000
2.79500996,-65.03493000
2.79756996,-65.03493000
2.80012996,-60.56398000
2.80268996,-60.56398000
2.80524996,-60.56398000
2.80780996,-60.56398000
2.81036996,-60.56398000
2.81292996,-60.56398000
2.81548996,-60.56398000
2.81804996,-56.09302000
2.82060996,-51.62206000
2.82316996,-51.62206000
2.82572996,-51.62206000
2.82828996,-51.62206000
2.83084996,-51.62206000
2.83340996,-51.62206000
2.83596996,-51.62206000
2.83852996,-51.62206000
2.84108996,-51.62206000
2.84364996,-51.62206000
2.84620996,-47.15109000
2.84876996,-47.15109000
2.85132996,-47.15109000
2.85388996,-47.15109000
2.85644996,-47.15109000
2.85900996,-42.68013000
2.86156996,-42.68013000
2.86412996,-42.68013000
2.86668996,-42.68013000
2.86924996,-42.68013000
2.87180996,-42.68013000
2.87436996,-42.68013000
2.87692996,-42.68013000
2.87948996,-42.68013000
2.88204996,-42.68013000
2.88460996,-38.20917000
2.88716996,-38.20917000
2.88972996,-38.20917000
2.89228996,-38.20917000
2.89484996,-38.20917000
2.89740996,-33.73821000
2.89996996,-33.73821000
2.90252996,-33.73821000
2.90508996,-33.73821000
2.90764996,-33.73821000
2.91020996,-33.73821000
2.91276996,-33.73821000
2.91532996,-33.73821000
2.91788996,-33.73821000
2.92044996,-33.73821000
2.92300996,-33.73821000
2.92556996,-33.73821000
2.92812996,-33.73821000
2.93068996,-33.73821000
2.93324996,-29.26725000
2.93580996,-29.26725000
2.93836996,-29.26725000
2.94092996,-29.26725000
2.94348996,-29.26725000
2.94604996,-29.26725000
2.94860996,-29.26725000
2.95116996,-29.26725000
2.95372996,-29.26725000
2.95628996,-24.79629000
2.95884996,-29.26725000
2.96140996,-24.79629000
2.96396996,-24.79629000
2.96652996,-29.26725000
2.96908996,-24.79629000
2.97164996,-29.26725000
2.97420996,-24.79629000
2.97676996,-24.79629000
2.97932996,-24.79629000
2.98188996,-24.79629000
2.98444996,-24.79629000
2.98700996,-24.79629000
2.98956996,-24.79629000
2.99212996,-24.79629000
2.99468996,-24.79629000
2.99724996,-24.79629000
2.99980996,-24.79629000
3.00236996,-24.79629000
3.00492996,-24.79629000
3.00748996,-24.79629000
3.01004996,-24.79629000
3.01260996,-24.79629000
3.01516996,-24.79629000
3.01772996,-24.79629000
3.02028996,-24.79629000
3.02284996,-24.79629000
3.02540996,-24.79629000
3.02796996,-24.79629000
3.03052996,-24.79629000
3.03308996,-24.79629000
3.03564996,-24.79629000
3.03820996,-24.79629000
3.04076996,-24.79629000
3.04332996,-24.79629000
3.04588996,-24.79629000
3.04844996,-24.79629000
3.05100996,-24.79629000
3.05356996,-24.79629000
3.05612996,-24.79629000
3.05868996,-24.79629000
3.06124996,-24.79629000
3.06380996,-24.79629000
3.06636996,-24.79629000
3.06892996,-24.79629000
3.07148996,-24.79629000
3.07404996,-24.79629000
3.07660996,-24.79629000
3.07916996,-24.79629000
3.08172996,-24.79629000
3.08428996,-24.79629000
3.08684996,-24.79629000
3.08940996,-24.79629000
3.09196996,-24.79629000
3.09452996,-24.79629000
3.09708996,-24.79629000
3.09964996,-24.79629000
3.10220996,-29.26725000
3.10476996,-24.79629000
3.10732996,-24.79629000
3.10988996,-29.26725000
3.11244996,-29.26725000
3.11500996,-29.26725000
3.11756996,-29.26725000
3.12012996,-29.26725000
3.12268996,-29.26725000
3.12524996,-29.26725000
3.12780996,-29.26725000
3.13036996,-29.26725000
3.13292996,-29.26725000
3.13548996,-29.26725000
3.13804996,-29.26725000
3.14060996,-29.26725000
3.14316996,-29.26725000
3.14572996,-29.26725000
3.14828996,-29.26725000
3.15084996,-29.26725000
3.15340996,-33.73821000
3.15596996,-29.26725000
3.15852996,-29.26725000
3.16108996,-29.26725000
3.16364996,-29.26725000
3.16620996,-29.26725000
3.16876996,-29.26725000
3.17132996,-29.26725000
3.17388996,-29.26725000
3.17644996,-33.73821000
3.17900996,-33.73821000
3.18156996,-33.73821000
3.18412996,-33.73821000
3.18668996,-33.73821000
3.18924996,-33.73821000
3.19180996,-33.73821000
3.19436996,-33.73821000
3.19692996,-33.73821000
3.19948996,-33.73821000
3.20204996,-33.73821000
3.20460996,-33.73821000
3.20716996,-33.73821000
3.20972996,-33.73821000
3.21228996,-33.73821000
3.21484996,-33.73821000
3.21740996,-33.73821000
3.21996996,-33.73821000
3.22252996,-33.73821000
3.22508996,-33.73821000
3.22764996,-33.73821000
3.23020996,-33.73821000
3.23276996,-33.73821000
3.23532996,-33.73821000
3.23788996,-33.73821000
3.24044996,-38.20917000
3.24300996,-33.73821000
3.24556996,-42.68013000
3.24812996,-38.20917000
3.25068996,-38.20917000
3.25324996,-38.20917000
3.25580996,-38.20917000
3.25836996,-42.68013000
3.26092996,-38.20917000
3.26348996,-42.68013000
3.26604996,-42.68013000
3.26860996,-42.68013000
3.27116996,-42.68013000
3.27372996,-42.68013000
3.27628996,-42.68013000
3.27884996,-42.68013000
3.28140996,-42.68013000
3.28396996,-42.68013000
3.28652996,-42.68013000
3.28908996,-42.68013000
3.29164996,-42.68013000
3.29420996,-42.68013000
3.29676996,-42.68013000
3.29932996,-42.68013000
3.30188996,-42.68013000
3.30444996,-42.68013000
3.30700996,-47.15109000
3.30956996,-47.15109000
3.31212996,-47.15109000
3.31468996,-47.15109000
3.31724996,-47.15109000
3.31980996,-47.15109000
3.32236996,-47.15109000
3.32492996,-51.62206000
3.32748996,-51.62206000
3.33004996,-51.62206000
3.33260996,-51.62206000
3.33516996,-51.62206000
3.33772996,-51.62206000
3.34028996,-51.62206000
3.34284996,-51.62206000
3.34540996,-51.62206000
3.34796996,-51.62206000
3.35052996,-51.62206000
3.35308996,-51.62206000
3.35564996,-51.62206000
3.35820996,-51.62206000
3.36076996,-51.62206000
3.36332996,-51.62206000
3.36588996,-51.62206000
3.36844996,-51.62206000
3.37100996,-51.62206000
3.37356996,-56.09302000
3.37612996,-56.09302000
3.37868996,-56.09302000
3.38124996,-51.62206000
3.38380996,-56.09302000
3.38636996,-60.56398000
3.38892996,-60.56398000
3.39148996,-56.09302000
3.39404996,-56.09302000
3.39660996,-60.56398000
3.39916996,-60.56398000
3.40172996,-60.56398000
3.40428996,-60.56398000
3.40684996,-60.56398000
3.40940996,-60.56398000
3.41196996,-60.56398000
3.41452996,-60.56398000
3.41708996,-60.56398000
3.41964996,-60.56398000
3.42220996,-60.56398000
3.42476996,-60.56398000
3.42732996,-60.56398000
3.42988996,-65.03493000
3.43244996,-60.56398000
3.43500996,-60.56398000
3.43756996,-65.03493000
3.44012996,-60.56398000
3.44268996,-65.03493000
3.44524996,-65.03493000
3.44780996,-65.03493000
3.45036996,-65.03493000
3.45292996,-65.03493000
3.45548996,-65.03493000
3.45804996,-65.03493000
3.46060996,-65.03493000
3.46316996,-65.03493000
3.46572996,-69.50591000
3.46828996,-65.03493000
3.47084996,-65.03493000
3.47340996,-69.50591000
3.47596996,-65.03493000
3.47852996,-65.03493000
3.48108996,-65.03493000
3.48364996,-69.50591000
3.48620996,-65.03493000
3.48876996,-69.50591000
3.49132996,-69.50591000
3.49388996,-69.50591000
3.49644996,-69.50591000
3.49900996,-69.50591000
3.50156996,-69.50591000
3.50412995,-69.50591000
3.50668995,-69.50591000
3.50924995,-69.50591000
3.51180995,-69.50591000
3.51436995,-69.50591000
3.51692995,-69.50591000
3.51948995,-69.50591000
3.52204995,-69.50591000
3.52460995,-69.50591000
3.52716995,-69.50591000
3.52972995,-69.50591000
3.53228995,-69.50591000
3.53484995,-69.50591000
3.53740995,-69.50591000
3.53996995,-73.99212000
3.54252995,-69.50591000
3.54508995,-69.50591000
3.54764995,-69.50591000
3.55020995,-69.50591000
3.55276995,-69.50591000
3.55532995,-69.50591000
3.55788995,-69.50591000
3.56044995,-69.50591000
3.56300995,-73.99212000
3.56556995,-73.99212000
3.56812995,-69.50591000
3.57068995,-69.50591000
3.57324995,-69.50591000
3.57580995,-73.99212000
3.57836995,-69.50591000
3.58092995,-73.99212000
3.58348995,-69.50591000
3.58604995,-73.99212000
3.58860995,-73.99212000
3.59116995,-73.99212000
3.59372995,-73.99212000
3.59628995,-73.99212000
3.59884995,-73.99212000
3.60140995,-69.50591000
3.60396995,-73.99212000
3.60652995,-78.46308000
3.60908995,-78.46308000
3.61164995,-78.46308000
3.61420995,-78.46308000
3.61676995,-73.99212000
3.61932995,-73.99212000
3.62188995,-73.99212000
3.62444995,-73.99212000
3.62700995,-73.99212000
3.62956995,-78.46308000
3.63212995,-78.46308000
3.63468995,-73.99212000
3.63724995,-78.46308000
3.63980995,-78.46308000
3.64236995,-78.46308000
3.64492995,-73.99212000
3.64748995,-78.46308000
3.65004995,-73.99212000
3.65260995,-73.99212000
3.65516995,-73.99212000
3.65772995,-78.46308000
3.66028995,-78.46308000
3.66284995,-73.99212000
3.66540995,-78.46308000
3.66796995,-78.46308000
3.67052995,-78.46308000
3.67308995,-78.46308000
3.67564995,-78.46308000
3.67820995,-73.99212000
3.68076995,-78.46308000
3.68332995,-78.46308000
3.68588995,-78.46308000
3.68844995,-78.46308000
3.69100995,-78.46308000
3.69356995,-78.46308000
3.69612995,-78.46308000
3.69868995,-78.46308000
3.70124995,-73.99212000
3.70380995,-78.46308000
3.70636995,-78.46308000
3.70892995,-78.46308000
3.71148995,-78.46308000
3.71404995,-78.46308000
3.71660995,-78.46308000
3.71916995,-78.46308000
3.72172995,-78.46308000
3.72428995,-78.46308000
3.72684995,-78.46308000
3.72940995,-78.46308000
3.73196995,-78.46308000
3.73452995,-78.46308000
3.73708995,-78.46308000
3.73964995,-78.46308000
3.74220995,-78.46308000
3.74476995,-78.46308000
3.74732995,-78.46308000
3.74988995,-78.46308000
3.75244995,-78.46308000
3.75500995,-78.46308000
3.75756995,-73.99212000
3.76012995,-78.46308000
3.76268995,-78.46308000
3.76524995,-78.46308000
3.76780995,-73.99212000
3.77036995,-78.46308000
3.77292995,-78.46308000
3.77548995,-78.46308000
3.77804995,-78.46308000
3.78060995,-78.46308000
3.78316995,-73.99212000
3.78572995,-78.46308000
3.78828995,-78.46308000
3.79084995,-78.46308000
3.79340995,-78.46308000
3.79596995,-73.99212000
3.79852995,-78.46308000
3.80108995,-78.46308000
3.80364995,-78.46308000
3.80620995,-73.99212000
3.80876995,-73.99212000
3.81132995,-73.99212000
3.81388995,-78.46308000
3.81644995,-73.99212000
3.81900995,-78.46308000
3.82156995,-73.99212000
3.82412995,-78.46308000
3.82668995,-73.99212000
3.82924995,-73.99212000
3.83180995,-69.50591000
3.83436995,-73.99212000
3.83692995,-73.99212000
3.83948995,-73.99212000
3.84204995,-78.46308000
3.84460995,-73.99212000
3.84716995,-73.99212000
3.84972995,-73.99212000
3.85228995,-78.46308000
3.85484995,-78.46308000
3.85740995,-73.99212000
3.85996995,-73.99212000
3.86252995,-78.46308000
3.86508995,-73.99212000
3.86764995,-78.46308000
3.87020995,-73.99212000
3.87276995,-73.99212000
3.87532995,-69.50591000
3.87788995,-73.99212000
3.88044995,-78.46308000
3.88300995,-73.99212000
3.88556995,-73.99212000
3.88812995,-73.99212000
3.89068995,-73.99212000
3.89324995,-73.99212000
3.89580995,-73.99212000
3.89836995,-73.99212000
3.90092995,-73.99212000
3.90348995,-73.99212000
3.90604995,-73.99212000
3.90860995,-73.99212000
3.91116995,-73.99212000
3.91372995,-73.99212000
3.91628995,-69.50591000
3.91884995,-73.99212000
3.92140995,-73.99212000
3.92396995,-73.99212000
3.92652995,-73.99212000
3.92908995,-73.99212000
3.93164995,-69.50591000
3.93420995,-73.99212000
3.93676995,-73.99212000
3.93932995,-73.99212000
3.94188995,-73.99212000
3.94444995,-73.99212000
3.94700995,-73.99212000
3.94956995,-73.99212000
3.95212995,-73.99212000
3.95468995,-73.99212000
3.95724995,-73.99212000
3.95980995,-73.99212000
3.96236995,-73.99212000
3.96492995,-73.99212000
3.96748995,-73.99212000
3.97004995,-73.99212000
3.97260995,-73.99212000
3.97516995,-73.99212000
3.97772995,-69.50591000
3.98028995,-73.99212000
3.98284995,-73.99212000
3.98540995,-69.50591000
3.98796995,-69.50591000
3.99052995,-69.50591000
3.99308995,-73.99212000
3.99564995,-73.99212000
3.99820995,-69.50591000
4.00076995,-69.50591000
4.00332995,-69.50591000
4.00588995,-69.50591000
4.00844995,-73.99212000
4.01100995,-69.50591000
4.01356995,-69.50591000
4.01612995,-69.50591000
4.01868995,-69.50591000
4.02124995,-69.50591000
4.02380995,-69.50591000
4.02636995,-73.99212000
4.02892995,-69.50591000
4.03148995,-73.99212000
4.03404995,-73.99212000
4.03660995,-69.50591000
4.03916995,-73.99212000
4.04172995,-69.50591000
4.04428995,-69.50591000
4.04684995,-73.99212000
4.04940995,-69.50591000
4.05196995,-73.99212000
4.05452995,-73.99212000
4.05708995,-69.50591000
4.05964995,-73.99212000
4.06220995,-69.50591000
4.06476995,-73.99212000
4.06732995,-73.99212000
4.06988995,-69.50591000
4.07244995,-73.99212000
4.07500995,-69.50591000
4.07756995,-69.50591000
4.08012995,-69.50591000
4.08268995,-69.50591000
4.08524995,-69.50591000
4.08780995,-69.50591000
4.09036995,-69.50591000
4.09292995,-69.50591000
4.09548995,-69.50591000
4.09804995,-69.50591000
4.10060995,-69.50591000
4.10316995,-69.50591000
4.10572995,-69.50591000
4.10828995,-69.50591000
4.11084995,-69.50591000
4.11340995,-69.50591000
4.11596995,-69.50591000
4.11852995,-69.50591000
4.12108995,-69.50591000
4.12364995,-69.50591000
4.12620995,-69.50591000
4.12876995,-69.50591000
4.13132995,-69.50591000
4.13388995,-69.50591000
4.13644995,-69.50591000
4.13900995,-69.50591000
4.14156995,-69.50591000
4.14412995,-69.50591000
4.14668995,-69.50591000
4.14924995,-69.50591000
4.15180995,-69.50591000
4.15436995,-69.50591000
4.15692995,-69.50591000
4.15948995,-69.50591000
4.16204995,-69.50591000
4.16460995,-69.50591000
4.16716995,-69.50591000
4.16972995,-69.50591000
4.17228995,-69.50591000
4.17484995,-69.50591000
4.17740995,-69.50591000
4.17996995,-69.50591000
4.18252995,-69.50591000
4.18508995,-69.50591000
4.18764995,-69.50591000
4.19020995,-69.50591000
4.19276995,-69.50591000
4.19532995,-69.50591000
4.19788995,-69.50591000
4.20044995,-69.50591000
4.20300995,-69.50591000
4.20556995,-69.50591000
4.20812995,-69.50591000
4.21068995,-69.50591000
4.21324995,-69.50591000
4.21580995,-69.50591000
4.21836995,-69.50591000
4.22092995,-69.50591000
4.22348995,-69.50591000
4.22604995,-69.50591000
4.22860995,-69.50591000
4.23116995,-69.50591000
4.23372995,-69.50591000
4.23628995,-69.50591000
4.23884995,-69.50591000
4.24140995,-69.50591000
4.24396995,-69.50591000
4.24652995,-69.50591000
4.24908995,-69.50591000
4.25164995,-69.50591000
4.25420995,-69.50591000
4.25676995,-69.50591000
4.25932995,-69.50591000
4.26188995,-69.50591000
4.26444995,-69.50591000
4.26700995,-69.50591000
4.26956995,-69.50591000
4.27212995,-69.50591000
4.27468995,-69.50591000
4.27724995,-69.50591000
4.27980995,-69.50591000
4.28236995,-69.50591000
4.28492995,-69.50591000
4.28748995,-69.50591000
4.29004995,-69.50591000
4.29260995,-69.50591000
4.29516995,-69.50591000
4.29772995,-69.50591000
4.30028995,-69.50591000
4.30284995,-69.50591000
4.30540995,-69.50591000
4.30796995,-69.50591000
4.31052995,-69.50591000
4.31308995,-69.50591000
4.31564995,-69.50591000
4.31820995,-69.50591000
4.32076995,-69.50591000
4.32332995,-69.50591000
4.32588995,-69.50591000
4.32844995,-69.50591000
4.33100995,-69.50591000
4.33356995,-69.50591000
4.33612995,-69.50591000
4.33868995,-69.50591000
4.34124995,-69.50591000
4.34380995,-69.50591000
4.34636995,-69.50591000
4.34892995,-69.50591000
4.35148995,-69.50591000
4.35404995,-69.50591000
4.35660995,-69.50591000
4.35916995,-69.50591000
4.36172995,-69.50591000
4.36428995,-69.50591000
4.36684995,-69.50591000
4.36940995,-69.50591000
4.37196995,-69.50591000
4.37452995,-69.50591000
4.37708995,-69.50591000
4.37964995,-69.50591000
4.38220995,-69.50591000
4.38476995,-69.50591000
4.38732995,-69.50591000
4.38988995,-69.50591000
4.39244995,-69.50591000
4.39500995,-69.50591000
4.39756995,-69.50591000
4.40012995,-69.50591000
4.40268995,-69.50591000
4.40524995,-69.50591000
4.40780995,-69.50591000
4.41036995,-69.50591000
4.41292995,-69.50591000
4.41548995,-69.50591000
4.41804995,-69.50591000
4.42060995,-69.50591000
4.42316995,-69.50591000
4.42572995,-69.50591000
4.42828995,-69.50591000
4.43084995,-69.50591000
4.43340995,-69.50591000
4.43596995,-69.50591000
4.43852995,-69.50591000
4.44108995,-69.50591000
4.44364995,-69.50591000
4.44620995,-69.50591000
4.44876995,-69.50591000
4.45132995,-69.50591000
4.45388995,-69.50591000
4.45644995,-69.50591000
4.45900995,-69.50591000
4.46156995,-69.50591000
4.46412995,-69.50591000
4.46668995,-69.50591000
4.46924995,-69.50591000
4.47180995,-69.50591000
4.47436995,-69.50591000
4.47692995,-69.50591000
4.47948995,-69.50591000
4.48204995,-65.03493000
4.48460995,-69.50591000
4.48716995,-69.50591000
4.48972995,-69.50591000
4.49228995,-69.50591000
4.49484995,-69.50591000
4.49740995,-69.50591000
4.49996995,-69.50591000
4.50252995,-69.50591000
4.50508995,-69.50591000
4.50764995,-65.03493000
4.51020995,-69.50591000
4.51276995,-69.50591000
4.51532995,-69.50591000
4.51788995,-69.50591000
4.52044995,-65.03493000
4.52300995,-69.50591000
4.52556995,-69.50591000
4.52812995,-69.50591000
4.53068995,-65.03493000
4.53324995,-69.50591000
4.53580995,-69.50591000
4.53836995,-69.50591000
4.54092995,-69.50591000
4.54348995,-69.50591000
4.54604995,-69.50591000
4.54860995,-69.50591000
4.55116995,-69.50591000
4.55372995,-69.50591000
4.55628995,-69.50591000
4.55884995,-65.03493000
4.56140995,-69.50591000
4.56396995,-69.50591000
4.56652995,-69.50591000
4.56908995,-69.50591000
4.57164995,-69.50591000
4.57420995,-69.50591000
4.57676995,-69.50591000
4.57932995,-69.50591000
4.58188995,-69.50591000
4.58444995,-69.50591000
4.58700995,-69.50591000
4.58956995,-69.50591000
4.59212995,-69.50591000
4.59468995,-69.50591000
4.59724995,-69.50591000
4.59980995,-69.50591000
4.60236995,-69.50591000
4.60492995,-69.50591000
4.60748995,-69.50591000
4.61004995,-69.50591000
4.61260995,-69.50591000
4.61516995,-69.50591000
4.61772995,-69.50591000
4.62028995,-69.50591000
4.62284995,-69.50591000
4.62540995,-69.50591000
4.62796995,-69.50591000
4.63052995,-69.50591000
4.63308995,-69.50591000
4.63564995,-69.50591000
4.63820995,-69.50591000
4.64076995,-69.50591000
4.64332995,-69.50591000
4.64588995,-69.50591000
4.64844995,-69.50591000
4.65100995,-73.99212000
4.65356995,-69.50591000
4.65612995,-69.50591000
4.65868995,-69.50591000
4.66124995,-69.50591000
4.66380995,-73.99212000
4.66636995,-73.99212000
4.66892995,-69.50591000
4.67148995,-69.50591000
4.67404995,-69.50591000
4.67660995,-69.50591000
4.67916995,-69.50591000
4.68172995,-69.50591000
4.68428995,-69.50591000
4.68684995,-73.99212000
4.68940995,-69.50591000
4.69196995,-69.50591000
4.69452995,-69.50591000
4.69708995,-73.99212000
4.69964995,-73.99212000
4.70220995,-73.99212000
4.70476995,-73.99212000
4.70732995,-69.50591000
4.70988995,-73.99212000
4.71244995,-69.50591000
4.71500995,-73.99212000
4.71756995,-73.99212000
4.72012995,-73.99212000
4.72268995,-69.50591000
4.72524995,-73.99212000
4.72780995,-73.99212000
4.73036995,-69.50591000
4.73292995,-73.99212000
4.73548995,-69.50591000
4.73804995,-73.99212000
4.74060995,-73.99212000
4.74316995,-73.99212000
4.74572995,-73.99212000
4.74828995,-73.99212000
4.75084995,-73.99212000
4.75340995,-73.99212000
4.75596995,-73.99212000
4.75852995,-73.99212000
4.76108995,-73.99212000
4.76364995,-73.99212000
4.76620995,-73.99212000
4.76876995,-73.99212000
4.77132995,-73.99212000
4.77388995,-73.99212000
4.77644995,-73.99212000
4.77900995,-73.99212000
4.78156995,-73.99212000
4.78412995,-73.99212000
4.78668995,-69.50591000
4.78924995,-73.99212000
4.79180995,-73.99212000
4.79436995,-73.99212000
4.79692995,-73.99212000
4.79948995,-69.50591000
4.80204995,-69.50591000
4.80460995,-69.50591000
4.80716995,-73.99212000
4.80972995,-73.99212000
4.81228995,-73.99212000
4.81484995,-73.99212000
4.81740995,-73.99212000
4.81996995,-73.99212000
4.82252995,-73.99212000
4.82508995,-73.99212000
4.82764995,-73.99212000
4.83020995,-73.99212000
4.83276995,-73.99212000
4.83532995,-73.99212000
4.83788995,-69.50591000
4.84044995,-69.50591000
4.84300995,-73.99212000
4.84556995,-73.99212000
4.84812995,-73.99212000
4.85068995,-69.50591000
4.85324995,-73.99212000
4.85580995,-73.99212000
4.85836995,-73.99212000
4.86092995,-73.99212000
4.86348995,-69.50591000
4.86604995,-69.50591000
4.86860995,-69.50591000
4.87116995,-69.50591000
4.87372995,-69.50591000
4.87628995,-73.99212000
4.87884995,-73.99212000
4.88140995,-73.99212000
4.88396995,-73.99212000
4.88652995,-73.99212000
4.88908995,-73.99212000
4.89164995,-73.99212000
4.89420995,-69.50591000
4.89676995,-69.50591000
4.89932995,-69.50591000
4.90188995,-69.50591000
4.90444995,-73.99212000
4.90700995,-69.50591000
4.90956995,-73.99212000
4.91212995,-73.99212000
4.91468995,-73.99212000
4.91724995,-69.50591000
4.91980995,-69.50591000
4.92236995,-69.50591000
4.92492995,-69.50591000
4.92748995,-69.50591000
4.93004995,-69.50591000
4.93260995,-69.50591000
4.93516995,-69.50591000
4.93772995,-69.50591000
4.94028995,-69.50591000
4.94284995,-69.50591000
4.94540995,-69.50591000
4.94796995,-69.50591000
4.95052995,-69.50591000
4.95308995,-69.50591000
4.95564995,-69.50591000
4.95820995,-69.50591000
4.96076995,-69.50591000
4.96332995,-69.50591000
4.96588995,-69.50591000
4.96844995,-69.50591000
4.97100995,-69.50591000
4.97356995,-69.50591000
4.97612995,-69.50591000
4.97868995,-69.50591000
4.98124995,-69.50591000
4.98380995,-73.99212000
4.98636995,-69.50591000
4.98892995,-69.50591000
4.99148995,-73.99212000
4.99404995,-73.99212000
4.99660995,-69.50591000
4.99916995,-69.50591000
5.00172995,-69.50591000
5.00428995,-73.99212000
5.00684995,-69.50591000
5.00940995,-69.50591000
5.01196995,-73.99212000
5.01452995,-73.99212000
5.01708995,-73.99212000
5.01964995,-69.50591000
5.02220995,-73.99212000
5.02476995,-69.50591000
5.02732995,-73.99212000
5.02988995,-69.50591000
5.03244995,-69.50591000
5.03500995,-69.50591000
5.03756995,-69.50591000
5.04012995,-69.50591000
5.04268995,-69.50591000
5.04524995,-69.50591000
5.04780995,-69.50591000
5.05036995,-69.50591000
5.05292995,-69.50591000
5.05548995,-73.99212000
5.05804995,-69.50591000
5.06060995,-69.50591000
5.06316995,-73.99212000
5.06572995,-69.50591000
5.06828995,-69.50591000
5.07084995,-69.50591000
5.07340995,-73.99212000
5.07596995,-69.50591000
5.07852995,-73.99212000
5.08108995,-69.50591000
5.08364995,-69.50591000
5.08620995,-73.99212000
5.08876995,-69.50591000
5.09132995,-69.50591000
5.09388995,-69.50591000
5.09644995,-73.99212000
5.09900995,-69.50591000
5.10156995,-69.50591000
5.10412995,-73.99212000
5.10668995,-73.99212000
5.10924995,-73.99212000
5.11180995,-73.99212000
5.11436995,-73.99212000
5.11692995,-73.99212000
5.11948995,-73.99212000
5.12204995,-69.50591000
5.12460995,-73.99212000
5.12716995,-73.99212000
5.12972995,-73.99212000
5.13228995,-73.99212000
5.13484995,-69.50591000
5.13740995,-73.99212000
5.13996995,-73.99212000
5.14252995,-73.99212000
5.14508995,-73.99212000
5.14764995,-73.99212000
5.15020994,-73.99212000
5.15276994,-69.50591000
5.15532994,-73.99212000
5.15788994,-73.99212000
5.16044994,-73.99212000
5.16300994,-73.99212000
5.16556994,-73.99212000
5.16812994,-73.99212000
5.17068994,-73.99212000
5.17324994,-73.99212000
5.17580994,-73.99212000
5.17836994,-73.99212000
5.18092994,-73.99212000
5.18348994,-69.50591000
5.18604994,-73.99212000
5.18860994,-73.99212000
5.19116994,-73.99212000
5.19372994,-73.99212000
5.19628994,-73.99212000
5.19884994,-73.99212000
5.20140994,-69.50591000
5.20396994,-69.50591000
5.20652994,-73.99212000
5.20908994,-73.99212000
5.21164994,-73.99212000
5.21420994,-73.99212000
5.21676994,-73.99212000
5.21932994,-73.99212000
5.22188994,-73.99212000
5.22444994,-73.99212000
5.22700994,-73.99212000
5.22956994,-69.50591000
5.23212994,-73.99212000
5.23468994,-73.99212000
5.23724994,-73.99212000
5.23980994,-73.99212000
5.24236994,-78.46308000
5.24492994,-73.99212000
5.24748994,-73.99212000
5.25004994,-73.99212000
5.25260994,-73.99212000
5.25516994,-78.46308000
5.25772994,-73.99212000
5.26028994,-73.99212000
5.26284994,-78.46308000
5.26540994,-78.46308000
5.26796994,-73.99212000
5.27052994,-73.99212000
5.27308994,-73.99212000
5.27564994,-73.99212000
5.27820994,-73.99212000
5.28076994,-73.99212000
5.28332994,-73.99212000
5.28588994,-73.99212000
5.28844994,-78.46308000
5.29100994,-73.99212000
5.29356994,-73.99212000
5.29612994,-73.99212000
5.29868994,-78.46308000
5.30124994,-73.99212000
5.30380994,-78.46308000
5.30636994,-73.99212000
5.30892994,-73.99212000
5.31148994,-78.46308000
5.31404994,-73.99212000
5.31660994,-73.99212000
5.31916994,-73.99212000
5.32172994,-73.99212000
5.32428994,-73.99212000
5.32684994,-78.46308000
5.32940994,-73.99212000
5.33196994,-73.99212000
5.33452994,-73.99212000
5.33708994,-73.99212000
5.33964994,-73.99212000
5.34220994,-73.99212000
5.34476994,-78.46308000
5.34732994,-73.99212000
5.34988994,-73.99212000
5.35244994,-73.99212000
5.35500994,-73.99212000
5.35756994,-78.46308000
5.36012994,-78.46308000
5.36268994,-78.46308000
5.36524994,-78.46308000
5.36780994,-78.46308000
5.37036994,-73.99212000
5.37292994,-73.99212000
5.37548994,-78.46308000
5.37804994,-78.46308000
5.38060994,-73.99212000
5.38316994,-78.46308000
5.38572994,-73.99212000
5.38828994,-78.46308000
5.39084994,-78.46308000
5.39340994,-78.46308000
5.39596994,-78.46308000
5.39852994,-78.46308000
5.40108994,-73.99212000
5.40364994,-78.46308000
5.40620994,-78.46308000
5.40876994,-78.46308000
5.41132994,-73.99212000
5.41388994,-73.99212000
5.41644994,-78.46308000
5.41900994,-78.46308000
5.42156994,-78.46308000
5.42412994,-78.46308000
5.42668994,-78.46308000
5.42924994,-73.99212000
5.43180994,-78.46308000
5.43436994,-73.99212000
5.43692994,-78.46308000
5.43948994,-73.99212000
5.44204994,-73.99212000
5.44460994,-78.46308000
5.44716994,-78.46308000
5.44972994,-78.46308000
5.45228994,-78.46308000
5.45484994,-78.46308000
5.45740994,-78.46308000
5.45996994,-73.99212000
5.46252994,-78.46308000
5.46508994,-78.46308000
5.46764994,-78.46308000
5.47020994,-73.99212000
5.47276994,-78.46308000
5.47532994,-78.46308000
5.47788994,-78.46308000
5.48044994,-78.46308000
5.48300994,-73.99212000
5.48556994,-73.99212000
5.48812994,-73.99212000
5.49068994,-78.46308000
5.49324994,-78.46308000
5.49580994,-78.46308000
5.49836994,-78.46308000
5.50092994,-78.46308000
5.50348994,-78.46308000
5.50604994,-78.46308000
5.50860994,-73.99212000
5.51116994,-78.46308000
5.51372994,-73.99212000
5.51628994,-73.99212000
5.51884994,-78.46308000
5.52140994,-73.99212000
5.52396994,-78.46308000
5.52652994,-73.99212000
5.52908994,-73.99212000
5.53164994,-73.99212000
5.53420994,-73.99212000
5.53676994,-78.46308000
5.53932994,-73.99212000
5.54188994,-73.99212000
5.54444994,-73.99212000
5.54700994,-78.46308000
5.54956994,-73.99212000
5.55212994,-73.99212000
5.55468994,-73.99212000
5.55724994,-73.99212000
5.55980994,-73.99212000
5.56236994,-78.46308000
5.56492994,-78.46308000
5.56748994,-73.99212000
5.57004994,-73.99212000
5.57260994,-78.46308000
5.57516994,-73.99212000
5.57772994,-73.99212000
5.58028994,-73.99212000
5.58284994,-73.99212000
5.58540994,-73.99212000
5.58796994,-73.99212000
5.59052994,-69.50591000
5.59308994,-73.99212000
5.59564994,-73.99212000
5.59820994,-69.50591000
5.60076994,-73.99212000
5.60332994,-73.99212000
5.60588994,-78.46308000
5.60844994,-73.99212000
5.61100994,-73.99212000
5.61356994,-73.99212000
5.61612994,-78.46308000
5.61868994,-73.99212000
5.62124994,-73.99212000
5.62380994,-73.99212000
5.62636994,-73.99212000
5.62892994,-73.99212000
5.63148994,-73.99212000
5.63404994,-78.46308000
5.63660994,-73.99212000
5.63916994,-69.50591000
5.64172994,-73.99212000
5.64428994,-73.99212000
5.64684994,-73.99212000
5.64940994,-73.99212000
5.65196994,-73.99212000
5.65452994,-69.50591000
5.65708994,-73.99212000
5.65964994,-73.99212000
5.66220994,-73.99212000
5.66476994,-73.99212000
5.66732994,-69.50591000
5.66988994,-69.50591000
5.67244994,-73.99212000
5.67500994,-73.99212000
5.67756994,-69.50591000
5.68012994,-73.99212000
5.68268994,-73.99212000
5.68524994,-73.99212000
5.68780994,-73.99212000
5.69036994,-73.99212000
5.69292994,-73.99212000
5.69548994,-69.50591000
5.69804994,-69.50591000
5.70060994,-73.99212000
5.70316994,-73.99212000
5.70572994,-69.50591000
5.70828994,-73.99212000
5.71084994,-73.99212000
5.71340994,-69.50591000
5.71596994,-73.99212000
5.71852994,-73.99212000
5.72108994,-73.99212000
5.72364994,-73.99212000
5.72620994,-73.99212000
5.72876994,-69.50591000
5.73132994,-73.99212000
5.73388994,-73.99212000
5.73644994,-73.99212000
5.73900994,-69.50591000
5.74156994,-73.99212000
5.74412994,-73.99212000
5.74668994,-73.99212000
5.74924994,-73.99212000
5.75180994,-73.99212000
5.75436994,-69.50591000
5.75692994,-73.99212000
5.75948994,-69.50591000
5.76204994,-73.99212000
5.76460994,-69.50591000
5.76716994,-73.99212000
5.76972994,-69.50591000
5.77228994,-73.99212000
5.77484994,-73.99212000
5.77740994,-73.99212000
5.77996994,-73.99212000
5.78252994,-73.99212000
5.78508994,-73.99212000
5.78764994,-69.50591000
5.79020994,-69.50591000
5.79276994,-73.99212000
5.79532994,-73.99212000
5.79788994,-73.99212000
5.80044994,-69.50591000
5.80300994,-69.50591000
5.80556994,-73.99212000
5.80812994,-73.99212000
5.81068994,-73.99212000
5.81324994,-73.99212000
5.81580994,-73.99212000
5.81836994,-73.99212000
5.82092994,-73.99212000
5.82348994,-73.99212000
5.82604994,-73.99212000
5.82860994,-73.99212000
5.83116994,-69.50591000
5.83372994,-73.99212000
5.83628994,-73.99212000
5.83884994,-73.99212000
5.84140994,-73.99212000
5.84396994,-73.99212000
5.84652994,-73.99212000
5.84908994,-73.99212000
5.85164994,-73.99212000
5.85420994,-73.99212000
5.85676994,-73.99212000
5.85932994,-69.50591000
5.86188994,-73.99212000
5.86444994,-73.99212000
5.86700994,-78.46308000
5.86956994,-78.46308000
5.87212994,-73.99212000
5.87468994,-73.99212000
5.87724994,-73.99212000
5.87980994,-78.46308000
5.88236994,-73.99212000
5.88492994,-73.99212000
5.88748994,-73.99212000
5.89004994,-73.99212000
5.89260994,-73.99212000
5.89516994,-73.99212000
5.89772994,-73.99212000
5.90028994,-73.99212000
5.90284994,-73.99212000
5.90540994,-73.99212000
5.90796994,-73.99212000
5.91052994,-78.46308000
5.91308994,-73.99212000
5.91564994,-78.46308000
5.91820994,-73.99212000
5.92076994,-73.99212000
5.92332994,-73.99212000
5.92588994,-73.99212000
5.92844994,-78.46308000
5.93100994,-73.99212000
5.93356994,-73.99212000
5.93612994,-73.99212000
5.93868994,-73.99212000
5.94124994,-73.99212000
5.94380994,-73.99212000
5.94636994,-73.99212000
5.94892994,-78.46308000
5.95148994,-73.99212000
5.95404994,-73.99212000
5.95660994,-73.99212000
5.95916994,-73.99212000
5.96172994,-73.99212000
5.96428994,-73.99212000
5.96684994,-78.46308000
5.96940994,-78.46308000
5.97196994,-78.46308000
5.97452994,-78.46308000
5.97708994,-73.99212000
5.97964994,-78.46308000
5.98220994,-73.99212000
5.98476994,-73.99212000
5.98732994,-78.46308000
5.98988994,-78.46308000
5.99244994,-73.99212000
5.99500994,-73.99212000
5.99756994,-78.46308000
6.00012994,-73.99212000
6.00268994,-78.46308000
6.00524994,-73.99212000
6.00780994,-73.99212000
6.01036994,-73.99212000
6.01292994,-73.99212000
6.01548994,-73.99212000
6.01804994,-78.46308000
6.02060994,-78.46308000
6.02316994,-78.46308000
6.02572994,-73.99212000
6.02828994,-73.99212000
6.03084994,-78.46308000
6.03340994,-78.46308000
6.03596994,-78.46308000
6.03852994,-73.99212000
6.04108994,-73.99212000
6.04364994,-73.99212000
6.04620994,-73.99212000
6.04876994,-73.99212000
6.05132994,-73.99212000
6.05388994,-73.99212000
6.05644994,-73.99212000
6.05900994,-73.99212000
6.06156994,-73.99212000
6.06412994,-73.99212000
6.06668994,-73.99212000
6.06924994,-78.46308000
6.07180994,-78.46308000
6.07436994,-73.99212000
6.07692994,-73.99212000
6.07948994,-73.99212000
6.08204994,-73.99212000
6.08460994,-73.99212000
6.08716994,-73.99212000
6.08972994,-78.46308000
6.09228994,-78.46308000
6.09484994,-73.99212000
6.09740994,-73.99212000
6.09996994,-73.99212000
6.10252994,-73.99212000
6.10508994,-73.99212000
6.10764994,-78.46308000
6.11020994,-73.99212000
6.11276994,-73.99212000
6.11532994,-69.50591000
6.11788994,-73.99212000
6.12044994,-73.99212000
6.12300994,-73.99212000
6.12556994,-73.99212000
6.12812994,-73.99212000
6.13068994,-73.99212000
6.13324994,-73.99212000
6.13580994,-73.99212000
6.13836994,-78.46308000
6.14092994,-73.99212000
6.14348994,-73.99212000
6.14604994,-73.99212000
6.14860994,-73.99212000
6.15116994,-73.99212000
6.15372994,-73.99212000
6.15628994,-73.99212000
6.15884994,-73.99212000
6.16140994,-73.99212000
6.16396994,-73.99212000
6.16652994,-73.99212000
6.16908994,-69.50591000
6.17164994,-73.99212000
6.17420994,-73.99212000
6.17676994,-73.99212000
6.17932994,-73.99212000
6.18188994,-73.99212000
6.18444994,-73.99212000
6.18700994,-73.99212000
6.18956994,-73.99212000
6.19212994,-73.99212000
6.19468994,-69.50591000
6.19724994,-78.46308000
6.19980994,-73.99212000
6.20236994,-73.99212000
6.20492994,-73.99212000
6.20748994,-73.99212000
6.21004994,-73.99212000
6.21260994,-73.99212000
6.21516994,-73.99212000
6.21772994,-73.99212000
6.22028994,-73.99212000
6.22284994,-73.99212000
6.22540994,-73.99212000
6.22796994,-73.99212000
6.23052994,-69.50591000
6.23308994,-73.99212000
6.23564994,-73.99212000
6.23820994,-69.50591000
6.24076994,-73.99212000
6.24332994,-73.99212000
6.24588994,-73.99212000
6.24844994,-69.50591000
6.25100994,-69.50591000
6.25356994,-73.99212000
6.25612994,-69.50591000
6.25868994,-69.50591000
6.26124994,-73.99212000
6.26380994,-73.99212000
6.26636994,-73.99212000
6.26892994,-69.50591000
6.27148994,-73.99212000
6.27404994,-69.50591000
6.27660994,-73.99212000
6.27916994,-73.99212000
6.28172994,-73.99212000
6.28428994,-73.99212000
6.28684994,-73.99212000
6.28940994,-73.99212000
6.29196994,-73.99212000
6.29452994,-73.99212000
6.29708994,-73.99212000
6.29964994,-73.99212000
6.30220994,-69.50591000
6.30476994,-73.99212000
6.30732994,-73.99212000
6.30988994,-73.99212000
6.31244994,-73.99212000
6.31500994,-73.99212000
6.31756994,-73.99212000
6.32012994,-73.99212000
6.32268994,-73.99212000
6.32524994,-73.99212000
6.32780994,-73.99212000
6.33036994,-73.99212000
6.33292994,-73.99212000
6.33548994,-73.99212000
6.33804994,-73.99212000
6.34060994,-73.99212000
6.34316994,-73.99212000
6.34572994,-73.99212000
6.34828994,-73.99212000
6.35084994,-73.99212000
6.35340994,-73.99212000
6.35596994,-73.99212000
6.35852994,-73.99212000
6.36108994,-73.99212000
6.36364994,-73.99212000
6.36620994,-73.99212000
6.36876994,-73.99212000
6.37132994,-73.99212000
6.37388994,-78.46308000
6.37644994,-73.99212000
6.37900994,-73.99212000
6.38156994,-69.50591000
6.38412994,-73.99212000
6.38668994,-73.99212000
6.38924994,-69.50591000
6.39180994,-73.99212000
6.39436994,-73.99212000
6.39692994,-73.99212000
6.39948994,-73.99212000
6.40204994,-73.99212000
6.40460994,-73.99212000
6.40716994,-73.99212000
6.40972994,-73.99212000
6.41228994,-73.99212000
6.41484994,-78.46308000
6.41740994,-73.99212000
6.41996994,-73.99212000
6.42252994,-73.99212000
6.42508994,-73.99212000
6.42764994,-73.99212000
6.43020994,-73.99212000
6.43276994,-73.99212000
6.43532994,-73.99212000
6.43788994,-69.50591000
6.44044994,-73.99212000
6.44300994,-73.99212000
6.44556994,-73.99212000
6.44812994,-73.99212000
6.45068994,-78.46308000
6.45324994,-73.99212000
6.45580994,-73.99212000
6.45836994,-73.99212000
6.46092994,-73.99212000
6.46348994,-73.99212000
6.46604994,-73.99212000
6.46860994,-73.99212000
6.47116994,-73.99212000
6.47372994,-78.46308000
6.47628994,-78.46308000
6.47884994,-78.46308000
6.48140994,-73.99212000
6.48396994,-73.99212000
6.48652994,-73.99212000
6.48908994,-73.99212000
6.49164994,-69.50591000
6.49420994,-73.99212000
6.49676994,-69.50591000
6.49932994,-73.99212000
6.50188994,-73.99212000
6.50444994,-73.99212000
6.50700994,-73.99212000
6.50956994,-73.99212000
6.51212994,-73.99212000
6.51468994,-73.99212000
6.51724994,-73.99212000
6.51980994,-73.99212000
6.52236994,-73.99212000
6.52492994,-73.99212000
6.52748994,-73.99212000
6.53004994,-73.99212000
6.53260994,-73.99212000
6.53516994,-69.50591000
6.53772994,-73.99212000
6.54028994,-73.99212000
6.54284994,-73.99212000
6.54540994,-78.46308000
6.54796994,-73.99212000
6.55052994,-73.99212000
6.55308994,-69.50591000
6.55564994,-73.99212000
6.55820994,-73.99212000
6.56076994,-69.50591000
6.56332994,-69.50591000
6.56588994,-73.99212000
6.56844994,-73.99212000
6.57100994,-69.50591000
6.57356994,-73.99212000
6.57612994,-73.99212000
6.57868994,-73.99212000
6.58124994,-73.99212000
6.58380994,-73.99212000
6.58636994,-73.99212000
6.58892994,-73.99212000
6.59148994,-73.99212000
6.59404994,-73.99212000
6.59660994,-73.99212000
6.59916994,-73.99212000
6.60172994,-73.99212000
6.60428994,-73.99212000
6.60684994,-69.50591000
6.60940994,-73.99212000
6.61196994,-73.99212000
6.61452994,-73.99212000
6.61708994,-73.99212000
6.61964994,-73.99212000
6.62220994,-69.50591000
6.62476994,-78.46308000
6.62732994,-73.99212000
6.62988994,-69.50591000
6.63244994,-73.99212000
6.63500994,-73.99212000
6.63756994,-73.99212000
6.64012994,-73.99212000
6.64268994,-73.99212000
6.64524994,-73.99212000
6.64780994,-73.99212000
6.65036994,-73.99212000
6.65292994,-73.99212000
6.65548994,-73.99212000
6.65804994,-73.99212000
6.66060994,-73.99212000
6.66316994,-78.46308000
6.66572994,-73.99212000
6.66828994,-78.46308000
6.67084994,-73.99212000
6.67340994,-73.99212000
6.67596994,-73.99212000
6.67852994,-73.99212000
6.68108994,-73.99212000
6.68364994,-73.99212000
6.68620994,-69.50591000
6.68876994,-73.99212000
6.69132994,-73.99212000
6.69388994,-73.99212000
6.69644994,-73.99212000
6.69900994,-73.99212000
6.70156994,-73.99212000
6.70412994,-73.99212000
6.70668994,-69.50591000
6.70924994,-73.99212000
6.71180994,-73.99212000
6.71436994,-73.99212000
6.71692994,-73.99212000
6.71948994,-73.99212000
6.72204994,-73.99212000
6.72460994,-73.99212000
6.72716994,-78.46308000
6.72972994,-73.99212000
6.73228994,-73.99212000
6.73484994,-73.99212000
6.73740994,-73.99212000
6.73996994,-73.99212000
6.74252994,-73.99212000
6.74508994,-73.99212000
6.74764994,-78.46308000
6.75020994,-73.99212000
6.75276994,-73.99212000
6.75532994,-78.46308000
6.75788994,-73.99212000
6.76044994,-73.99212000
6.76300994,-73.99212000
6.76556994,-78.46308000
6.76812994,-78.46308000
6.77068994,-78.46308000
6.77324994,-78.46308000
6.77580994,-73.99212000
6.77836994,-78.46308000
6.78092994,-78.46308000
6.78348994,-78.46308000
6.78604994,-78.46308000
6.78860994,-78.46308000
6.79116994,-78.46308000
6.79372993,-78.46308000
6.79628993,-78.46308000
6.79884993,-78.46308000
6.80140993,-78.46308000
6.80396993,-78.46308000
6.80652993,-78.46308000
6.80908993,-78.46308000
6.81164993,-78.46308000
6.81420993,-78.46308000
6.81676993,-78.46308000
6.81932993,-78.46308000
6.82188993,-78.46308000
6.82444993,-78.46308000
6.82700993,-78.46308000
6.82956993,-78.46308000
6.83212993,-78.46308000
6.83468993,-78.46308000
6.83724993,-78.46308000
6.83980993,-78.46308000
6.84236993,-78.46308000
6.84492993,-78.46308000
6.84748993,-82.93404000
6.85004993,-78.46308000
6.85260993,-78.46308000
6.85516993,-78.46308000
6.85772993,-82.93404000
6.86028993,-82.93404000
6.86284993,-82.93404000
6.86540993,-82.93404000
6.86796993,-82.93404000
6.87052993,-82.93404000
6.87308993,-82.93404000
6.87564993,-82.93404000
6.87820993,-87.40501000
6.88076993,-87.40501000
6.88332993,-87.40501000
6.88588993,-87.40501000
6.88844993,-87.40501000
6.89100993,-87.40501000
6.89356993,-87.40501000
6.89612993,-87.40501000
6.89868993,-87.40501000
6.90124993,-87.40501000
6.90380993,-87.40501000
6.90636993,-87.40501000
6.90892993,-87.40501000
6.91148993,-91.87596000
6.91404993,-91.87596000
6.91660993,-87.40501000
6.91916993,-91.87596000
6.92172993,-91.87596000
6.92428993,-91.87596000
6.92684993,-91.87596000
6.92940993,-91.87596000
6.93196993,-96.34693000
6.93452993,-96.34693000
6.93708993,-96.34693000
6.93964993,-96.34693000
6.94220993,-96.34693000
6.94476993,-96.34693000
6.94732993,-96.34693000
6.94988993,-96.34693000
6.95244993,-100.81790000
6.95500993,-96.34693000
6.95756993,-100.81790000
6.96012993,-100.81790000
6.96268993,-100.81790000
6.96524993,-100.81790000
6.96780993,-100.81790000
6.97036993,-105.28880000
6.97292993,-100.81790000
6.97548993,-105.28880000
6.97804993,-105.28880000
6.98060993,-105.28880000
6.98316993,-105.28880000
6.98572993,-105.28880000
6.98828993,-105.28880000
6.99084993,-105.28880000
6.99340993,-105.28880000
6.99596993,-105.28880000
6.99852993,-105.28880000
7.00108993,-105.28880000
7.00364993,-105.28880000
7.00620993,-105.28880000
7.00876993,-109.75980000
7.01132993,-105.28880000
7.01388993,-109.75980000
7.01644993,-109.75980000
7.01900993,-114.23080000
7.02156993,-114.23080000
7.02412993,-109.75980000
7.02668993,-114.23080000
7.02924993,-114.23080000
7.03180993,-114.23080000
7.03436993,-114.23080000
7.03692993,-114.23080000
7.03948993,-114.23080000
7.04204993,-114.23080000
7.04460993,-114.23080000
7.04716993,-114.23080000
7.04972993,-114.23080000
7.05228993,-114.23080000
7.05484993,-114.23080000
7.05740993,-114.23080000
7.05996993,-114.23080000
7.06252993,-114.23080000
7.06508993,-114.23080000
7.06764993,-114.23080000
7.07020993,-114.23080000
7.07276993,-118.70170000
7.07532993,-114.23080000
7.07788993,-118.70170000
7.08044993,-118.70170000
7.08300993,-118.70170000
7.08556993,-118.70170000
7.08812993,-118.70170000
7.09068993,-118.70170000
7.09324993,-118.70170000
7.09580993,-118.70170000
7.09836993,-118.70170000
7.10092993,-118.70170000
7.10348993,-118.70170000
7.10604993,-118.70170000
7.10860993,-118.70170000
7.11116993,-118.70170000
7.11372993,-118.70170000
7.11628993,-118.70170000
7.11884993,-123.17270000
7.12140993,-123.17270000
7.12396993,-123.17270000
7.12652993,-123.17270000
7.12908993,-123.17270000
7.13164993,-123.17270000
7.13420993,-123.17270000
7.13676993,-123.17270000
7.13932993,-123.17270000
7.14188993,-123.17270000
7.14444993,-123.17270000
7.14700993,-123.17270000
7.14956993,-123.17270000
7.15212993,-123.17270000
7.15468993,-123.17270000
7.15724993,-123.17270000
7.15980993,-123.17270000
7.16236993,-123.17270000
7.16492993,-123.17270000
7.16748993,-123.17270000
7.17004993,-123.17270000
7.17260993,-123.17270000
7.17516993,-123.17270000
7.17772993,-123.17270000
7.18028993,-123.17270000
7.18284993,-123.17270000
7.18540993,-123.17270000
7.18796993,-123.17270000
7.19052993,-123.17270000
7.19308993,-123.17270000
7.19564993,-123.17270000
7.19820993,-123.17270000
7.20076993,-123.17270000
7.20332993,-123.17270000
7.20588993,-123.17270000
7.20844993,-123.17270000
7.21100993,-123.17270000
7.21356993,-123.17270000
7.21612993,-123.17270000
7.21868993,-123.17270000
7.22124993,-123.17270000
7.22380993,-123.17270000
7.22636993,-123.17270000
7.22892993,-123.17270000
7.23148993,-123.17270000
7.23404993,-123.17270000
7.23660993,-123.17270000
7.23916993,-118.70170000
7.24172993,-123.17270000
7.24428993,-118.70170000
7.24684993,-118.70170000
7.24940993,-118.70170000
7.25196993,-118.70170000
7.25452993,-123.17270000
7.25708993,-118.70170000
7.25964993,-118.70170000
7.26220993,-118.70170000
7.26476993,-118.70170000
7.26732993,-118.70170000
7.26988993,-118.70170000
7.27244993,-118.70170000
7.27500993,-118.70170000
7.27756993,-118.70170000
7.28012993,-118.70170000
7.28268993,-118.70170000
7.28524993,-118.70170000
7.28780993,-114.23080000
7.29036993,-118.70170000
7.29292993,-118.70170000
7.29548993,-114.23080000
7.29804993,-114.23080000
7.30060993,-114.23080000
7.30316993,-114.23080000
7.30572993,-114.23080000
7.30828993,-114.23080000
7.31084993,-114.23080000
7.31340993,-114.23080000
7.31596993,-114.23080000
7.31852993,-114.23080000
7.32108993,-114.23080000
7.32364993,-114.23080000
7.32620993,-114.23080000
7.32876993,-114.23080000
7.33132993,-114.23080000
7.33388993,-114.23080000
7.33644993,-109.75980000
7.33900993,-109.75980000
7.34156993,-109.75980000
7.34412993,-109.75980000
7.34668993,-109.75980000
7.34924993,-109.75980000
7.35180993,-109.75980000
7.35436993,-105.28880000
7.35692993,-105.28880000
7.35948993,-109.75980000
7.36204993,-105.28880000
7.36460993,-109.75980000
7.36716993,-105.28880000
7.36972993,-105.28880000
7.37228993,-105.28880000
7.37484993,-105.28880000
7.37740993,-105.28880000
7.37996993,-105.28880000
7.38252993,-105.28880000
7.38508993,-105.28880000
7.38764993,-105.28880000
7.39020993,-105.28880000
7.39276993,-105.28880000
7.39532993,-105.28880000
7.39788993,-105.28880000
7.40044993,-105.28880000
7.40300993,-105.28880000
7.40556993,-105.28880000
7.40812993,-100.81790000
7.41068993,-100.81790000
7.41324993,-100.81790000
7.41580993,-105.28880000
7.41836993,-100.81790000
7.42092993,-100.81790000
7.42348993,-100.81790000
7.42604993,-100.81790000
7.42860993,-100.81790000
7.43116993,-96.34693000
7.43372993,-100.81790000
7.43628993,-96.34693000
7.43884993,-96.34693000
7.44140993,-96.34693000
7.44396993,-96.34693000
7.44652993,-96.34693000
7.44908993,-96.34693000
7.45164993,-96.34693000
7.45420993,-96.34693000
7.45676993,-96.34693000
7.45932993,-96.34693000
7.46188993,-96.34693000
7.46444993,-96.34693000
7.46700993,-96.34693000
7.46956993,-96.34693000
7.47212993,-96.34693000
7.47468993,-96.34693000
7.47724993,-96.34693000
7.47980993,-91.87596000
7.48236993,-91.87596000
7.48492993,-91.87596000
7.48748993,-91.87596000
7.49004993,-91.87596000
7.49260993,-87.40501000
7.49516993,-91.87596000
7.49772993,-91.87596000
7.50028993,-91.87596000
7.50284993,-91.87596000
7.50540993,-87.40501000
7.50796993,-87.40501000
7.51052993,-87.40501000
7.51308993,-87.40501000
7.51564993,-87.40501000
7.51820993,-87.40501000
7.52076993,-87.40501000
7.52332993,-87.40501000
7.52588993,-87.40501000
7.52844993,-87.40501000
7.53100993,-87.40501000
7.53356993,-87.40501000
7.53612993,-87.40501000
7.53868993,-87.40501000
7.54124993,-87.40501000
7.54380993,-87.40501000
7.54636993,-87.40501000
7.54892993,-87.40501000
7.55148993,-87.40501000
7.55404993,-87.40501000
7.55660993,-82.93404000
7.55916993,-87.40501000
7.56172993,-82.93404000
7.56428993,-82.93404000
7.56684993,-82.93404000
7.56940993,-82.93404000
7.57196993,-82.93404000
7.57452993,-82.93404000
7.57708993,-82.93404000
7.57964993,-82.93404000
7.58220993,-82.93404000
7.58476993,-82.93404000
7.58732993,-82.93404000
7.58988993,-82.93404000
7.59244993,-78.46308000
7.59500993,-82.93404000
7.59756993,-82.93404000
7.60012993,-78.46308000
7.60268993,-78.46308000
7.60524993,-78.46308000
7.60780993,-78.46308000
7.61036993,-82.93404000
7.61292993,-78.46308000
7.61548993,-78.46308000
7.61804993,-78.46308000
7.62060993,-78.46308000
7.62316993,-78.46308000
7.62572993,-78.46308000
7.62828993,-78.46308000
7.63084993,-78.46308000
7.63340993,-78.46308000
7.63596993,-78.46308000
7.63852993,-78.46308000
7.64108993,-78.46308000
7.64364993,-78.46308000
7.64620993,-78.46308000
7.64876993,-78.46308000
7.65132993,-78.46308000
7.65388993,-78.46308000
7.65644993,-78.46308000
7.65900993,-78.46308000
7.66156993,-78.46308000
7.66412993,-78.46308000
7.66668993,-78.46308000
7.66924993,-73.99212000
7.67180993,-78.46308000
7.67436993,-78.46308000
7.67692993,-78.46308000
7.67948993,-73.99212000
7.68204993,-78.46308000
7.68460993,-73.99212000
7.68716993,-78.46308000
7.68972993,-78.46308000
7.69228993,-73.99212000
7.69484993,-73.99212000
7.69740993,-78.46308000
7.69996993,-73.99212000
7.70252993,-73.99212000
7.70508993,-73.99212000
7.70764993,-73.99212000
7.71020993,-73.99212000
7.71276993,-73.99212000
7.71532993,-73.99212000
7.71788993,-73.99212000
7.72044993,-69.50591000
7.72300993,-73.99212000
7.72556993,-73.99212000
7.72812993,-78.46308000
7.73068993,-73.99212000
7.73324993,-69.50591000
7.73580993,-73.99212000
7.73836993,-73.99212000
7.74092993,-73.99212000
7.74348993,-73.99212000
7.74604993,-73.99212000
7.74860993,-73.99212000
7.75116993,-73.99212000
7.75372993,-73.99212000
7.75628993,-73.99212000
7.75884993,-69.50591000
7.76140993,-69.50591000
7.76396993,-69.50591000
7.76652993,-69.50591000
7.76908993,-73.99212000
7.77164993,-73.99212000
7.77420993,-73.99212000
7.77676993,-69.50591000
7.77932993,-73.99212000
7.78188993,-73.99212000
7.78444993,-73.99212000
7.78700993,-69.50591000
7.78956993,-69.50591000
7.79212993,-73.99212000
7.79468993,-69.50591000
7.79724993,-69.50591000
7.79980993,-69.50591000
7.80236993,-69.50591000
7.80492993,-69.50591000
7.80748993,-69.50591000
7.81004993,-69.50591000
7.81260993,-69.50591000
7.81516993,-69.50591000
7.81772993,-69.50591000
7.82028993,-69.50591000
7.82284993,-69.50591000
7.82540993,-69.50591000
7.82796993,-69.50591000
7.83052993,-69.50591000
7.83308993,-69.50591000
7.83564993,-69.50591000
7.83820993,-69.50591000
7.84076993,-69.50591000
7.84332993,-69.50591000
7.84588993,-69.50591000
7.84844993,-69.50591000
7.85100993,-69.50591000
7.85356993,-69.50591000
7.85612993,-69.50591000
7.85868993,-69.50591000
7.86124993,-69.50591000
7.86380993,-69.50591000
7.86636993,-69.50591000
7.86892993,-69.50591000
7.87148993,-69.50591000
7.87404993,-65.03493000
7.87660993,-69.50591000
7.87916993,-65.03493000
7.88172993,-65.03493000
7.88428993,-65.03493000
7.88684993,-65.03493000
7.88940993,-65.03493000
7.89196993,-65.03493000
7.89452993,-65.03493000
7.89708993,-60.56398000
7.89964993,-65.03493000
7.90220993,-60.56398000
7.90476993,-60.56398000
7.90732993,-60.56398000
7.90988993,-60.56398000
7.91244993,-60.56398000
7.91500993,-60.56398000
7.91756993,-60.56398000
7.92012993,-60.56398000
7.92268993,-60.56398000
7.92524993,-60.56398000
7.92780993,-60.56398000
7.93036993,-60.56398000
7.93292993,-56.09302000
7.93548993,-56.09302000
7.93804993,-56.09302000
7.94060993,-56.09302000
7.94316993,-56.09302000
7.94572993,-56.09302000
7.94828993,-51.62206000
7.95084993,-56.09302000
7.95340993,-51.62206000
7.95596993,-51.62206000
7.95852993,-51.62206000
7.96108993,-51.62206000
7.96364993,-51.62206000
7.96620993,-51.62206000
7.96876993,-51.62206000
7.97132993,-51.62206000
7.97388993,-51.62206000
7.97644993,-51.62206000
7.97900993,-51.62206000
7.98156993,-47.15109000
7.98412993,-42.68013000
7.98668993,-47.15109000
7.98924993,-47.15109000
7.99180993,-42.68013000
7.99436993,-42.68013000
7.99692993,-42.68013000
7.99948993,-42.68013000
8.00204993,-42.68013000
8.00460993,-42.68013000
8.00716993,-42.68013000
8.00972993,-42.68013000
8.01228993,-42.68013000
8.01484993,-42.68013000
8.01740993,-42.68013000
8.01996993,-42.68013000
8.02252993,-38.20917000
8.02508993,-38.20917000
8.02764993,-33.73821000
8.03020993,-38.20917000
8.03276993,-33.73821000
8.03532993,-33.73821000
8.03788993,-33.73821000
8.04044993,-33.73821000
8.04300993,-33.73821000
8.04556993,-33.73821000
8.04812993,-33.73821000
8.05068993,-33.73821000
8.05324993,-33.73821000
8.05580993,-33.73821000
8.05836993,-29.26725000
8.06092993,-29.26725000
8.06348993,-29.26725000
8.06604993,-29.26725000
8.06860993,-29.26725000
8.07116993,-29.26725000
8.07372993,-29.26725000
8.07628993,-29.26725000
8.07884993,-24.79629000
8.08140993,-24.79629000
8.08396993,-24.79629000
8.08652993,-24.79629000
8.08908993,-24.79629000
8.09164993,-24.79629000
8.09420993,-24.79629000
8.09676993,-24.79629000
8.09932993,-24.79629000
8.10188993,-24.79629000
8.10444993,-24.79629000
8.10700993,-24.79629000
8.10956993,-24.79629000
8.11212993,-20.32533000
8.11468993,-20.32533000
8.11724993,-20.32533000
8.11980993,-20.32533000
8.12236993,-20.32533000
8.12492993,-15.85437000
8.12748993,-20.32533000
8.13004993,-20.32533000
8.13260993,-15.85437000
8.13516993,-15.85437000
8.13772993,-15.85437000
8.14028993,-15.85437000
8.14284993,-15.85437000
8.14540993,-15.85437000
8.14796993,-15.85437000
8.15052993,-15.85437000
8.15308993,-15.85437000
8.15564993,-15.85437000
8.15820993,-15.85437000
8.16076993,-15.85437000
8.16332993,-15.85437000
8.16588993,-15.85437000
8.16844993,-15.85437000
8.17100993,-15.85437000
8.17356993,-15.85437000
8.17612993,-15.85437000
8.17868993,-15.85437000
8.18124993,-15.85437000
8.18380993,-15.85437000
8.18636993,-15.85437000
8.18892993,-15.85437000
8.19148993,-15.85437000
8.19404993,-15.85437000
8.19660993,-15.85437000
8.19916993,-15.85437000
8.20172993,-15.85437000
8.20428993,-15.85437000
8.20684993,-15.85437000
8.20940993,-15.85437000
8.21196993,-15.85437000
8.21452993,-15.85437000
8.21708993,-15.85437000
8.21964993,-15.85437000
8.22220993,-15.85437000
8.22476993,-15.85437000
8.22732993,-15.85437000
8.22988993,-15.85437000
8.23244993,-15.85437000
8.23500993,-15.85437000
8.23756993,-15.85437000
8.24012993,-15.85437000
8.24268993,-15.85437000
8.24524993,-15.85437000
8.24780993,-15.85437000
8.25036993,-15.85437000
8.25292993,-15.85437000
8.25548993,-15.85437000
8.25804993,-15.85437000
8.26060993,-15.85437000
8.26316993,-15.85437000
8.26572993,-15.85437000
8.26828993,-15.85437000
8.27084993,-15.85437000
8.27340993,-15.85437000
8.27596993,-15.85437000
8.27852993,-15.85437000
8.28108993,-15.85437000
8.28364993,-15.85437000
8.28620993,-15.85437000
8.28876993,-15.85437000
8.29132993,-15.85437000
8.29388993,-15.85437000
8.29644993,-15.85437000
8.29900993,-15.85437000
8.30156993,-15.85437000
8.30412993,-15.85437000
8.30668993,-15.85437000
8.30924993,-15.85437000
8.31180993,-15.85437000
8.31436993,-15.85437000
8.31692993,-15.85437000
8.31948993,-15.85437000
8.32204993,-15.85437000
8.32460993,-15.85437000
8.32716993,-15.85437000
8.32972993,-20.32533000
8.33228993,-20.32533000
8.33484993,-15.85437000
8.33740993,-20.32533000
8.33996993,-20.32533000
8.34252993,-20.32533000
8.34508993,-20.32533000
8.34764993,-20.32533000
8.35020993,-20.32533000
8.35276993,-20.32533000
8.35532993,-20.32533000
8.35788993,-20.32533000
8.36044993,-20.32533000
8.36300993,-20.32533000
8.36556993,-20.32533000
8.36812993,-24.79629000
8.37068993,-24.79629000
8.37324993,-24.79629000
8.37580993,-24.79629000
8.37836993,-24.79629000
8.38092993,-24.79629000
8.38348993,-24.79629000
8.38604993,-24.79629000
8.38860993,-24.79629000
8.39116993,-24.79629000
8.39372993,-24.79629000
8.39628993,-24.79629000
8.39884993,-24.79629000
8.40140993,-24.79629000
8.40396993,-24.79629000
8.40652993,-24.79629000
8.40908993,-24.79629000
8.41164993,-24.79629000
8.41420993,-24.79629000
8.41676993,-29.26725000
8.41932993,-29.26725000
8.42188993,-24.79629000
8.42444993,-24.79629000
8.42700993,-24.79629000
8.42956993,-29.26725000
8.43212993,-24.79629000
8.43468993,-29.26725000
8.43724993,-29.26725000
8.43980992,-29.26725000
8.44236992,-29.26725000
8.44492992,-29.26725000
8.44748992,-29.26725000
8.45004992,-29.26725000
8.45260992,-33.73821000
8.45516992,-29.26725000
8.45772992,-29.26725000
8.46028992,-29.26725000
8.46284992,-29.26725000
8.46540992,-33.73821000
8.46796992,-33.73821000
8.47052992,-33.73821000
8.47308992,-33.73821000
8.47564992,-33.73821000
8.47820992,-33.73821000
8.48076992,-33.73821000
8.48332992,-33.73821000
8.48588992,-33.73821000
8.48844992,-33.73821000
8.49100992,-33.73821000
8.49356992,-33.73821000
8.49612992,-33.73821000
8.49868992,-33.73821000
8.50124992,-33.73821000
8.50380992,-33.73821000
8.50636992,-38.20917000
8.50892992,-38.20917000
8.51148992,-38.20917000
8.51404992,-33.73821000
8.51660992,-38.20917000
8.51916992,-38.20917000
8.52172992,-38.20917000
8.52428992,-38.20917000
8.52684992,-38.20917000
8.52940992,-38.20917000
8.53196992,-38.20917000
8.53452992,-42.68013000
8.53708992,-42.68013000
8.53964992,-42.68013000
8.54220992,-42.68013000
8.54476992,-42.68013000
8.54732992,-42.68013000
8.54988992,-42.68013000
8.55244992,-42.68013000
8.55500992,-42.68013000
8.55756992,-42.68013000
8.56012992,-42.68013000
8.56268992,-42.68013000
8.56524992,-42.68013000
8.56780992,-42.68013000
8.57036992,-42.68013000
8.57292992,-42.68013000
8.57548992,-42.68013000
8.57804992,-47.15109000
8.58060992,-42.68013000
8.58316992,-47.15109000
8.58572992,-47.15109000
8.58828992,-47.15109000
8.59084992,-47.15109000
8.59340992,-47.15109000
8.59596992,-47.15109000
8.59852992,-47.15109000
8.60108992,-47.15109000
8.60364992,-47.15109000
8.60620992,-51.62206000
8.60876992,-51.62206000
8.61132992,-51.62206000
8.61388992,-51.62206000
8.61644992,-51.62206000
8.61900992,-51.62206000
8.62156992,-51.62206000
8.62412992,-51.62206000
8.62668992,-51.62206000
8.62924992,-51.62206000
8.63180992,-51.62206000
8.63436992,-51.62206000
8.63692992,-51.62206000
8.63948992,-51.62206000
8.64204992,-51.62206000
8.64460992,-56.09302000
8.64716992,-51.62206000
8.64972992,-56.09302000
8.65228992,-56.09302000
8.65484992,-56.09302000
8.65740992,-56.09302000
8.65996992,-56.09302000
8.66252992,-60.56398000
8.66508992,-60.56398000
8.66764992,-60.56398000
8.67020992,-60.56398000
8.67276992,-60.56398000
8.67532992,-60.56398000
8.67788992,-60.56398000
8.68044992,-60.56398000
8.68300992,-60.56398000
8.68556992,-60.56398000
8.68812992,-60.56398000
8.69068992,-60.56398000
8.69324992,-60.56398000
8.69580992,-60.56398000
8.69836992,-60.56398000
8.70092992,-60.56398000
8.70348992,-60.56398000
8.70604992,-60.56398000
8.70860992,-65.03493000
8.71116992,-65.03493000
8.71372992,-65.03493000
8.71628992,-65.03493000
8.71884992,-60.56398000
8.72140992,-65.03493000
8.72396992,-65.03493000
8.72652992,-65.03493000
8.72908992,-65.03493000
8.73164992,-65.03493000
8.73420992,-69.50591000
8.73676992,-69.50591000
8.73932992,-69.50591000
8.74188992,-69.50591000
8.74444992,-69.50591000
8.74700992,-69.50591000
8.74956992,-69.50591000
8.75212992,-69.50591000
8.75468992,-69.50591000
8.75724992,-69.50591000
8.75980992,-69.50591000
8.76236992,-69.50591000
8.76492992,-69.50591000
8.76748992,-69.50591000
8.77004992,-69.50591000
8.77260992,-69.50591000
8.77516992,-69.50591000
8.77772992,-69.50591000
8.78028992,-69.50591000
8.78284992,-69.50591000
8.78540992,-69.50591000
8.78796992,-69.50591000
8.79052992,-73.99212000
8.79308992,-73.99212000
8.79564992,-69.50591000
8.79820992,-73.99212000
8.80076992,-73.99212000
8.80332992,-73.99212000
8.80588992,-73.99212000
8.80844992,-73.99212000
8.81100992,-73.99212000
8.81356992,-78.46308000
8.81612992,-73.99212000
8.81868992,-78.46308000
8.82124992,-78.46308000
8.82380992,-78.46308000
8.82636992,-78.46308000
8.82892992,-78.46308000
8.83148992,-78.46308000
8.83404992,-78.46308000
8.83660992,-78.46308000
8.83916992,-78.46308000
8.84172992,-78.46308000
8.84428992,-78.46308000
8.84684992,-78.46308000
8.84940992,-78.46308000
8.85196992,-78.46308000
8.85452992,-78.46308000
8.85708992,-78.46308000
8.85964992,-78.46308000
8.86220992,-78.46308000
8.86476992,-78.46308000
8.86732992,-78.46308000
8.86988992,-78.46308000
8.87244992,-82.93404000
8.87500992,-82.93404000
8.87756992,-78.46308000
8.88012992,-78.46308000
8.88268992,-78.46308000
8.88524992,-82.93404000
8.88780992,-78.46308000
8.89036992,-82.93404000
8.89292992,-82.93404000
8.89548992,-82.93404000
8.89804992,-82.93404000
8.90060992,-82.93404000
8.90316992,-82.93404000
8.90572992,-82.93404000
8.90828992,-82.93404000
8.91084992,-82.93404000
8.91340992,-82.93404000
8.91596992,-82.93404000
8.91852992,-82.93404000
8.92108992,-82.93404000
8.92364992,-82.93404000
8.92620992,-82.93404000
8.92876992,-82.93404000
8.93132992,-82.93404000
8.93388992,-82.93404000
8.93644992,-82.93404000
8.93900992,-82.93404000
8.94156992,-82.93404000
8.94412992,-82.93404000
8.94668992,-87.40501000
8.94924992,-82.93404000
8.95180992,-82.93404000
8.95436992,-82.93404000
8.95692992,-82.93404000
8.95948992,-87.40501000
8.96204992,-82.93404000
8.96460992,-87.40501000
8.96716992,-82.93404000
8.96972992,-87.40501000
8.97228992,-82.93404000
8.97484992,-87.40501000
8.97740992,-82.93404000
8.97996992,-87.40501000
8.98252992,-87.40501000
8.98508992,-82.93404000
8.98764992,-87.40501000
8.99020992,-87.40501000
8.99276992,-87.40501000
8.99532992,-87.40501000
8.99788992,-87.40501000
9.00044992,-87.40501000
9.00300992,-87.40501000
9.00556992,-87.40501000
9.00812992,-87.40501000
9.01068992,-87.40501000
9.01324992,-87.40501000
9.01580992,-87.40501000
9.01836992,-87.40501000
9.02092992,-87.40501000
9.02348992,-87.40501000
9.02604992,-87.40501000
9.02860992,-87.40501000
9.03116992,-87.40501000
9.03372992,-87.40501000
9.03628992,-87.40501000
9.03884992,-87.40501000
9.04140992,-87.40501000
9.04396992,-87.40501000
9.04652992,-82.93404000
9.04908992,-87.40501000
9.05164992,-87.40501000
9.05420992,-87.40501000
9.05676992,-87.40501000
9.05932992,-87.40501000
9.06188992,-87.40501000
9.06444992,-87.40501000
9.06700992,-87.40501000
9.06956992,-87.40501000
9.07212992,-87.40501000
9.07468992,-87.40501000
9.07724992,-87.40501000
9.07980992,-87.40501000
9.08236992,-87.40501000
9.08492992,-87.40501000
9.08748992,-87.40501000
9.09004992,-87.40501000
9.09260992,-87.40501000
9.09516992,-87.40501000
9.09772992,-87.40501000
9.10028992,-87.40501000
9.10284992,-87.40501000
9.10540992,-87.40501000
9.10796992,-87.40501000
9.11052992,-87.40501000
9.11308992,-87.40501000
9.11564992,-87.40501000
9.11820992,-87.40501000
9.12076992,-87.40501000
9.12332992,-87.40501000
9.12588992,-87.40501000
9.12844992,-87.40501000
9.13100992,-87.40501000
9.13356992,-87.40501000
9.13612992,-87.40501000
9.13868992,-87.40501000
9.14124992,-87.40501000
9.14380992,-87.40501000
9.14636992,-87.40501000
9.14892992,-87.40501000
9.15148992,-87.40501000
9.15404992,-87.40501000
9.15660992,-87.40501000
9.15916992,-87.40501000
9.16172992,-87.40501000
9.16428992,-87.40501000
9.16684992,-87.40501000
9.16940992,-87.40501000
9.17196992,-87.40501000
9.17452992,-87.40501000
9.17708992,-87.40501000
9.17964992,-87.40501000
9.18220992,-87.40501000
9.18476992,-87.40501000
9.18732992,-87.40501000
9.18988992,-87.40501000
9.19244992,-87.40501000
9.19500992,-87.40501000
9.19756992,-87.40501000
9.20012992,-87.40501000
9.20268992,-87.40501000
9.20524992,-87.40501000
9.20780992,-87.40501000
9.21036992,-87.40501000
9.21292992,-87.40501000
9.21548992,-87.40501000
9.21804992,-87.40501000
9.22060992,-87.40501000
9.22316992,-87.40501000
9.22572992,-87.40501000
9.22828992,-87.40501000
9.23084992,-87.40501000
9.23340992,-87.40501000
9.23596992,-87.40501000
9.23852992,-87.40501000
9.24108992,-87.40501000
9.24364992,-87.40501000
9.24620992,-87.40501000
9.24876992,-87.40501000
9.25132992,-87.40501000
9.25388992,-87.40501000
9.25644992,-87.40501000
9.25900992,-87.40501000
9.26156992,-87.40501000
9.26412992,-87.40501000
9.26668992,-87.40501000
9.26924992,-87.40501000
9.27180992,-87.40501000
9.27436992,-87.40501000
9.27692992,-87.40501000
9.27948992,-87.40501000
9.28204992,-87.40501000
9.28460992,-87.40501000
9.28716992,-87.40501000
9.28972992,-87.40501000
9.29228992,-87.40501000
9.29484992,-87.40501000
9.29740992,-87.40501000
9.29996992,-87.40501000
9.30252992,-87.40501000
9.30508992,-87.40501000
9.30764992,-87.40501000
9.31020992,-87.40501000
9.31276992,-87.40501000
9.31532992,-87.40501000
9.31788992,-87.40501000
9.32044992,-82.93404000
9.32300992,-87.40501000
9.32556992,-87.40501000
9.32812992,-87.40501000
9.33068992,-87.40501000
9.33324992,-87.40501000
9.33580992,-87.40501000
9.33836992,-87.40501000
9.34092992,-87.40501000
9.34348992,-87.40501000
9.34604992,-87.40501000
9.34860992,-87.40501000
9.35116992,-87.40501000
9.35372992,-82.93404000
9.35628992,-87.40501000
9.35884992,-87.40501000
9.36140992,-87.40501000
9.36396992,-87.40501000
9.36652992,-87.40501000
9.36908992,-87.40501000
9.37164992,-87.40501000
9.37420992,-82.93404000
9.37676992,-87.40501000
9.37932992,-87.40501000
9.38188992,-87.40501000
9.38444992,-87.40501000
9.38700992,-87.40501000
9.38956992,-82.93404000
9.39212992,-87.40501000
9.39468992,-87.40501000
9.39724992,-87.40501000
9.39980992,-87.40501000
9.40236992,-87.40501000
9.40492992,-82.93404000
9.40748992,-82.93404000
9.41004992,-82.93404000
9.41260992,-87.40501000
9.41516992,-87.40501000
9.41772992,-82.93404000
9.42028992,-82.93404000
9.42284992,-82.93404000
9.42540992,-87.40501000
9.42796992,-87.40501000
9.43052992,-87.40501000
9.43308992,-87.40501000
9.43564992,-82.93404000
9.43820992,-87.40501000
9.44076992,-82.93404000
9.44332992,-87.40501000
9.44588992,-82.93404000
9.44844992,-82.93404000
9.45100992,-82.93404000
9.45356992,-82.93404000
9.45612992,-87.40501000
9.45868992,-82.93404000
9.46124992,-82.93404000
9.46380992,-82.93404000
9.46636992,-82.93404000
9.46892992,-82.93404000
9.47148992,-82.93404000
9.47404992,-82.93404000
9.47660992,-82.93404000
9.47916992,-82.93404000
9.48172992,-82.93404000
9.48428992,-82.93404000
9.48684992,-82.93404000
9.48940992,-82.93404000
9.49196992,-82.93404000
9.49452992,-82.93404000
9.49708992,-87.40501000
9.49964992,-82.93404000
9.50220992,-82.93404000
9.50476992,-82.93404000
9.50732992,-82.93404000
9.50988992,-82.93404000
9.51244992,-82.93404000
9.51500992,-82.93404000
9.51756992,-82.93404000
9.52012992,-82.93404000
9.52268992,-82.93404000
9.52524992,-82.93404000
9.52780992,-82.93404000
9.53036992,-82.93404000
9.53292992,-82.93404000
9.53548992,-82.93404000
9.53804992,-82.93404000
9.54060992,-82.93404000
9.54316992,-82.93404000
9.54572992,-82.93404000
9.54828992,-82.93404000
9.55084992,-82.93404000
9.55340992,-82.93404000
9.55596992,-82.93404000
9.55852992,-82.93404000
9.56108992,-82.93404000
9.56364992,-82.93404000
9.56620992,-82.93404000
9.56876992,-82.93404000
9.57132992,-82.93404000
9.57388992,-82.93404000
9.57644992,-82.93404000
9.57900992,-82.93404000
9.58156992,-82.93404000
9.58412992,-82.93404000
9.58668992,-82.93404000
9.58924992,-82.93404000
9.59180992,-82.93404000
9.59436992,-82.93404000
9.59692992,-82.93404000
9.59948992,-82.93404000
9.60204992,-82.93404000
9.60460992,-82.93404000
9.60716992,-82.93404000
9.60972992,-82.93404000
9.61228992,-82.93404000
9.61484992,-82.93404000
9.61740992,-82.93404000
9.61996992,-82.93404000
9.62252992,-82.93404000
9.62508992,-82.93404000
9.62764992,-82.93404000
9.63020992,-82.93404000
9.63276992,-82.93404000
9.63532992,-82.93404000
9.63788992,-82.93404000
9.64044992,-82.93404000
9.64300992,-82.93404000
9.64556992,-82.93404000
9.64812992,-82.93404000
9.65068992,-82.93404000
9.65324992,-82.93404000
9.65580992,-82.93404000
9.65836992,-82.93404000
9.66092992,-82.93404000
9.66348992,-82.93404000
9.66604992,-82.93404000
9.66860992,-82.93404000
9.67116992,-82.93404000
9.67372992,-82.93404000
9.67628992,-78.46308000
9.67884992,-82.93404000
9.68140992,-78.46308000
9.68396992,-82.93404000
9.68652992,-82.93404000
9.68908992,-82.93404000
9.69164992,-82.93404000
9.69420992,-78.46308000
9.69676992,-82.93404000
9.69932992,-78.46308000
9.70188992,-82.93404000
9.70444992,-78.46308000
9.70700992,-78.46308000
9.70956992,-78.46308000
9.71212992,-82.93404000
9.71468992,-78.46308000
9.71724992,-78.46308000
9.71980992,-82.93404000
9.72236992,-82.93404000
9.72492992,-78.46308000
9.72748992,-82.93404000
9.73004992,-78.46308000
9.73260992,-78.46308000
9.73516992,-82.93404000
9.73772992,-82.93404000
9.74028992,-78.46308000
9.74284992,-82.93404000
9.74540992,-82.93404000
9.74796992,-82.93404000
9.75052992,-82.93404000
9.75308992,-82.93404000
9.75564992,-82.93404000
9.75820992,-78.46308000
9.76076992,-82.93404000
9.76332992,-78.46308000
9.76588992,-78.46308000
9.76844992,-82.93404000
9.77100992,-78.46308000
9.77356992,-78.46308000
9.77612992,-78.46308000
9.77868992,-82.93404000
9.78124992,-82.93404000
9.78380992,-78.46308000
9.78636992,-78.46308000
9.78892992,-82.93404000
9.79148992,-78.46308000
9.79404992,-82.93404000
9.79660992,-78.46308000
9.79916992,-78.46308000
9.80172992,-82.93404000
9.80428992,-78.46308000
9.80684992,-82.93404000
9.80940992,-82.93404000
9.81196992,-78.46308000
9.81452992,-78.46308000
9.81708992,-78.46308000
9.81964992,-78.46308000
9.82220992,-82.93404000
9.82476992,-78.46308000
9.82732992,-78.46308000
9.82988992,-78.46308000
9.83244992,-78.46308000
9.83500992,-78.46308000
9.83756992,-82.93404000
9.84012992,-78.46308000
9.84268992,-78.46308000
9.84524992,-82.93404000
9.84780992,-82.93404000
9.85036992,-78.46308000
9.85292992,-82.93404000
9.85548992,-78.46308000
9.85804992,-78.46308000
9.86060992,-78.46308000
9.86316992,-78.46308000
9.86572992,-78.46308000
9.86828992,-78.46308000
9.87084992,-78.46308000
9.87340992,-82.93404000
9.87596992,-82.93404000
9.87852992,-78.46308000
9.88108992,-78.46308000
9.88364992,-82.93404000
9.88620992,-78.46308000
9.88876992,-78.46308000
9.89132992,-78.46308000
9.89388992,-78.46308000
9.89644992,-78.46308000
9.89900992,-78.46308000
9.90156992,-78.46308000
9.90412992,-78.46308000
9.90668992,-78.46308000
9.90924992,-78.46308000
9.91180992,-78.46308000
9.91436992,-78.46308000
9.91692992,-78.46308000
9.91948992,-78.46308000
9.92204992,-78.46308000
9.92460992,-78.46308000
9.92716992,-78.46308000
9.92972992,-78.46308000
9.93228992,-78.46308000
9.93484992,-78.46308000
9.93740992,-78.46308000
9.93996992,-78.46308000
9.94252992,-78.46308000
9.94508992,-78.46308000
9.94764992,-78.46308000
9.95020992,-78.46308000
9.95276992,-78.46308000
9.95532992,-78.46308000
9.95788992,-78.46308000
9.96044992,-78.46308000
9.96300992,-78.46308000
9.96556992,-78.46308000
9.96812992,-78.46308000
9.97068992,-78.46308000
9.97324992,-78.46308000
9.97580992,-78.46308000
9.97836992,-78.46308000
9.98092992,-78.46308000
9.98348992,-78.46308000
9.98604992,-78.46308000
9.98860992,-78.46308000
9.99116992,-78.46308000
9.99372992,-78.46308000
9.99628992,-78.46308000
9.99884992,-78.46308000
10.00140992,-78.46308000
10.00396992,-78.46308000
10.00652992,-78.46308000
10.00908992,-78.46308000
10.01164992,-78.46308000
10.01420992,-78.46308000
10.01676992,-78.46308000
10.01932992,-78.46308000
10.02188992,-78.46308000
10.02444992,-78.46308000
10.02700992,-78.46308000
10.02956992,-78.46308000
10.03212992,-78.46308000
10.03468992,-78.46308000
10.03724992,-78.46308000
10.03980992,-78.46308000
10.04236992,-78.46308000
10.04492992,-78.46308000
10.04748992,-78.46308000
10.05004992,-78.46308000
10.05260992,-78.46308000
10.05516992,-78.46308000
10.05772992,-78.46308000
10.06028992,-78.46308000
10.06284992,-78.46308000
10.06540992,-82.93404000
10.06796992,-78.46308000
10.07052992,-78.46308000
10.07308992,-78.46308000
10.07564992,-78.46308000
10.07820992,-78.46308000
10.08076992,-78.46308000
10.08332992,-78.46308000
10.08588991,-78.46308000
10.08844991,-78.46308000
10.09100991,-78.46308000
10.09356991,-78.46308000
10.09612991,-78.46308000
10.09868991,-78.46308000
10.10124991,-78.46308000
10.10380991,-78.46308000
10.10636991,-78.46308000
10.10892991,-78.46308000
10.11148991,-78.46308000
10.11404991,-78.46308000
10.11660991,-78.46308000
10.11916991,-78.46308000
10.12172991,-78.46308000
10.12428991,-78.46308000
10.12684991,-78.46308000
10.12940991,-78.46308000
10.13196991,-78.46308000
10.13452991,-82.93404000
10.13708991,-78.46308000
10.13964991,-78.46308000
10.14220991,-78.46308000
10.14476991,-78.46308000
10.14732991,-78.46308000
10.14988991,-78.46308000
10.15244991,-78.46308000
10.15500991,-78.46308000
10.15756991,-78.46308000
10.16012991,-78.46308000
10.16268991,-78.46308000
10.16524991,-78.46308000
10.16780991,-78.46308000
10.17036991,-78.46308000
10.17292991,-78.46308000
10.17548991,-82.93404000
10.17804991,-78.46308000
10.18060991,-78.46308000
10.18316991,-78.46308000
10.18572991,-78.46308000
10.18828991,-78.46308000
10.19084991,-78.46308000
10.19340991,-78.46308000
10.19596991,-78.46308000
10.19852991,-78.46308000
10.20108991,-78.46308000
10.20364991,-78.46308000
10.20620991,-78.46308000
10.20876991,-78.46308000
10.21132991,-78.46308000
10.21388991,-78.46308000
10.21644991,-78.46308000
10.21900991,-78.46308000
10.22156991,-78.46308000
10.22412991,-78.46308000
10.22668991,-78.46308000
10.22924991,-78.46308000
10.23180991,-78.46308000
10.23436991,-78.46308000
10.23692991,-78.46308000
10.23948991,-78.46308000
10.24204991,-78.46308000
10.24460991,-78.46308000
10.24716991,-78.46308000
10.24972991,-78.46308000
10.25228991,-78.46308000
10.25484991,-78.46308000
10.25740991,-78.46308000
10.25996991,-78.46308000
10.26252991,-78.46308000
10.26508991,-78.46308000
10.26764991,-78.46308000
10.27020991,-78.46308000
10.27276991,-78.46308000
10.27532991,-78.46308000
10.27788991,-78.46308000
10.28044991,-78.46308000
10.28300991,-78.46308000
10.28556991,-78.46308000
10.28812991,-78.46308000
10.29068991,-78.46308000
10.29324991,-78.46308000
10.29580991,-78.46308000
10.29836991,-78.46308000
10.30092991,-78.46308000
10.30348991,-78.46308000
10.30604991,-78.46308000
10.30860991,-78.46308000
10.31116991,-73.99212000
10.31372991,-78.46308000
10.31628991,-78.46308000
10.31884991,-78.46308000
10.32140991,-78.46308000
10.32396991,-78.46308000
10.32652991,-78.46308000
10.32908991,-78.46308000
10.33164991,-78.46308000
10.33420991,-73.99212000
10.33676991,-78.46308000
10.33932991,-78.46308000
10.34188991,-73.99212000
10.34444991,-78.46308000
10.34700991,-78.46308000
10.34956991,-78.46308000
10.35212991,-78.46308000
10.35468991,-78.46308000
10.35724991,-78.46308000
10.35980991,-78.46308000
10.36236991,-78.46308000
10.36492991,-78.46308000
10.36748991,-73.99212000
10.37004991,-78.46308000
10.37260991,-73.99212000
10.37516991,-73.99212000
10.37772991,-73.99212000
10.38028991,-78.46308000
10.38284991,-73.99212000
10.38540991,-78.46308000
10.38796991,-78.46308000
10.39052991,-78.46308000
10.39308991,-78.46308000
10.39564991,-78.46308000
10.39820991,-78.46308000
10.40076991,-78.46308000
10.40332991,-73.99212000
10.40588991,-78.46308000
10.40844991,-78.46308000
10.41100991,-78.46308000
10.41356991,-78.46308000
10.41612991,-78.46308000
10.41868991,-78.46308000
10.42124991,-78.46308000
10.42380991,-78.46308000
10.42636991,-78.46308000
10.42892991,-73.99212000
10.43148991,-78.46308000
10.43404991,-78.46308000
10.43660991,-78.46308000
10.43916991,-78.46308000
10.44172991,-78.46308000
10.44428991,-78.46308000
10.44684991,-78.46308000
10.44940991,-78.46308000
10.45196991,-78.46308000
10.45452991,-78.46308000
10.45708991,-78.46308000
10.45964991,-78.46308000
10.46220991,-78.46308000
10.46476991,-78.46308000
10.46732991,-78.46308000
10.46988991,-78.46308000
10.47244991,-78.46308000
10.47500991,-78.46308000
10.47756991,-78.46308000
10.48012991,-78.46308000
10.48268991,-78.46308000
10.48524991,-78.46308000
10.48780991,-78.46308000
10.49036991,-78.46308000
10.49292991,-78.46308000
10.49548991,-78.46308000
10.49804991,-78.46308000
10.50060991,-78.46308000
10.50316991,-78.46308000
10.50572991,-78.46308000
10.50828991,-78.46308000
10.51084991,-78.46308000
10.51340991,-78.46308000
10.51596991,-78.46308000
10.51852991,-78.46308000
10.52108991,-78.46308000
10.52364991,-78.46308000
10.52620991,-78.46308000
10.52876991,-78.46308000
10.53132991,-78.46308000
10.53388991,-78.46308000
10.53644991,-78.46308000
10.53900991,-78.46308000
10.54156991,-78.46308000
10.54412991,-78.46308000
10.54668991,-78.46308000
10.54924991,-78.46308000
10.55180991,-78.46308000
10.55436991,-78.46308000
10.55692991,-78.46308000
10.55948991,-78.46308000
10.56204991,-78.46308000
10.56460991,-78.46308000
10.56716991,-78.46308000
10.56972991,-78.46308000
10.57228991,-78.46308000
10.57484991,-78.46308000
10.57740991,-78.46308000
10.57996991,-78.46308000
10.58252991,-78.46308000
10.58508991,-78.46308000
10.58764991,-78.46308000
10.59020991,-78.46308000
10.59276991,-78.46308000
10.59532991,-78.46308000
10.59788991,-78.46308000
10.60044991,-78.46308000
10.60300991,-78.46308000
10.60556991,-78.46308000
10.60812991,-78.46308000
10.61068991,-78.46308000
10.61324991,-78.46308000
10.61580991,-78.46308000
10.61836991,-78.46308000
10.62092991,-78.46308000
10.62348991,-78.46308000
10.62604991,-78.46308000
10.62860991,-78.46308000
10.63116991,-78.46308000
10.63372991,-78.46308000
10.63628991,-78.46308000
10.63884991,-78.46308000
10.64140991,-78.46308000
10.64396991,-78.46308000
10.64652991,-78.46308000
10.64908991,-78.46308000
10.65164991,-78.46308000
10.65420991,-78.46308000
10.65676991,-78.46308000
10.65932991,-78.46308000
10.66188991,-78.46308000
10.66444991,-78.46308000
10.66700991,-78.46308000
10.66956991,-78.46308000
10.67212991,-78.46308000
10.67468991,-78.46308000
10.67724991,-78.46308000
10.67980991,-78.46308000
10.68236991,-78.46308000
10.68492991,-78.46308000
10.68748991,-78.46308000
10.69004991,-78.46308000
10.69260991,-78.46308000
10.69516991,-78.46308000
10.69772991,-78.46308000
10.70028991,-78.46308000
10.70284991,-78.46308000
10.70540991,-78.46308000
10.70796991,-78.46308000
10.71052991,-78.46308000
10.71308991,-78.46308000
10.71564991,-78.46308000
10.71820991,-78.46308000
10.72076991,-78.46308000
10.72332991,-78.46308000
10.72588991,-78.46308000
10.72844991,-73.99212000
10.73100991,-78.46308000
10.73356991,-78.46308000
10.73612991,-78.46308000
10.73868991,-78.46308000
10.74124991,-78.46308000
10.74380991,-78.46308000
10.74636991,-78.46308000
10.74892991,-78.46308000
10.75148991,-73.99212000
10.75404991,-78.46308000
10.75660991,-78.46308000
10.75916991,-78.46308000
10.76172991,-78.46308000
10.76428991,-73.99212000
10.76684991,-78.46308000
10.76940991,-78.46308000
10.77196991,-78.46308000
10.77452991,-78.46308000
10.77708991,-73.99212000
10.77964991,-78.46308000
10.78220991,-78.46308000
10.78476991,-78.46308000
10.78732991,-73.99212000
10.78988991,-78.46308000
10.79244991,-78.46308000
10.79500991,-78.46308000
10.79756991,-78.46308000
10.80012991,-78.46308000
10.80268991,-73.99212000
10.80524991,-78.46308000
10.80780991,-78.46308000
10.81036991,-78.46308000
10.81292991,-78.46308000
10.81548991,-78.46308000
10.81804991,-73.99212000
10.82060991,-78.46308000
10.82316991,-73.99212000
10.82572991,-78.46308000
10.82828991,-73.99212000
10.83084991,-73.99212000
10.83340991,-78.46308000
10.83596991,-78.46308000
10.83852991,-73.99212000
10.84108991,-73.99212000
10.84364991,-78.46308000
10.84620991,-73.99212000
10.84876991,-73.99212000
10.85132991,-73.99212000
10.85388991,-78.46308000
10.85644991,-73.99212000
10.85900991,-73.99212000
10.86156991,-73.99212000
10.86412991,-73.99212000
10.86668991,-73.99212000
10.86924991,-73.99212000
10.87180991,-73.99212000
10.87436991,-73.99212000
10.87692991,-78.46308000
10.87948991,-78.46308000
10.88204991,-73.99212000
10.88460991,-78.46308000
10.88716991,-73.99212000
10.88972991,-73.99212000
10.89228991,-73.99212000
10.89484991,-78.46308000
10.89740991,-73.99212000
10.89996991,-73.99212000
10.90252991,-78.46308000
10.90508991,-73.99212000
10.90764991,-73.99212000
10.91020991,-73.99212000
10.91276991,-73.99212000
10.91532991,-73.99212000
10.91788991,-73.99212000
10.92044991,-73.99212000
10.92300991,-73.99212000
10.92556991,-73.99212000
10.92812991,-73.99212000
10.93068991,-73.99212000
10.93324991,-73.99212000
10.93580991,-73.99212000
10.93836991,-73.99212000
10.94092991,-73.99212000
10.94348991,-73.99212000
10.94604991,-73.99212000
10.94860991,-73.99212000
10.95116991,-73.99212000
10.95372991,-73.99212000
10.95628991,-73.99212000
10.95884991,-73.99212000
10.96140991,-73.99212000
10.96396991,-73.99212000
10.96652991,-73.99212000
10.96908991,-73.99212000
10.97164991,-73.99212000
10.97420991,-73.99212000
10.97676991,-73.99212000
10.97932991,-73.99212000
10.98188991,-73.99212000
10.98444991,-73.99212000
10.98700991,-73.99212000
10.98956991,-73.99212000
10.99212991,-73.99212000
10.99468991,-73.99212000
10.99724991,-73.99212000
10.99980991,-78.46308000
11.00236991,-73.99212000
11.00492991,-73.99212000
11.00748991,-78.46308000
11.01004991,-73.99212000
11.01260991,-73.99212000
11.01516991,-73.99212000
11.01772991,-78.46308000
11.02028991,-78.46308000
11.02284991,-73.99212000
11.02540991,-73.99212000
11.02796991,-73.99212000
11.03052991,-73.99212000
11.03308991,-73.99212000
11.03564991,-73.99212000
11.03820991,-73.99212000
11.04076991,-78.46308000
11.04332991,-73.99212000
11.04588991,-73.99212000
11.04844991,-73.99212000
11.05100991,-73.99212000
11.05356991,-73.99212000
11.05612991,-78.46308000
11.05868991,-78.46308000
11.06124991,-73.99212000
11.06380991,-78.46308000
11.06636991,-69.50591000
11.06892991,-78.46308000
11.07148991,-73.99212000
11.07404991,-73.99212000
11.07660991,-78.46308000
11.07916991,-73.99212000
11.08172991,-78.46308000
11.08428991,-73.99212000
11.08684991,-73.99212000
11.08940991,-73.99212000
11.09196991,-73.99212000
11.09452991,-73.99212000
11.09708991,-73.99212000
11.09964991,-73.99212000
11.10220991,-69.50591000
11.10476991,-73.99212000
11.10732991,-73.99212000
11.10988991,-78.46308000
11.11244991,-73.99212000
11.11500991,-73.99212000
11.11756991,-73.99212000
11.12012991,-78.46308000
11.12268991,-78.46308000
11.12524991,-73.99212000
11.12780991,-73.99212000
11.13036991,-78.46308000
11.13292991,-78.46308000
11.13548991,-73.99212000
11.13804991,-73.99212000
11.14060991,-78.46308000
11.14316991,-78.46308000
11.14572991,-78.46308000
11.14828991,-73.99212000
11.15084991,-73.99212000
11.15340991,-78.46308000
11.15596991,-73.99212000
11.15852991,-78.46308000
11.16108991,-78.46308000
11.16364991,-78.46308000
11.16620991,-78.46308000
11.16876991,-78.46308000
11.17132991,-73.99212000
11.17388991,-73.99212000
11.17644991,-78.46308000
11.17900991,-78.46308000
11.18156991,-78.46308000
11.18412991,-73.99212000
11.18668991,-78.46308000
11.18924991,-78.46308000
11.19180991,-78.46308000
11.19436991,-78.46308000
11.19692991,-73.99212000
11.19948991,-78.46308000
11.20204991,-78.46308000
11.20460991,-73.99212000
11.20716991,-78.46308000
11.20972991,-78.46308000
11.21228991,-73.99212000
11.21484991,-78.46308000
11.21740991,-78.46308000
11.21996991,-78.46308000
11.22252991,-78.46308000
11.22508991,-78.46308000
11.22764991,-73.99212000
11.23020991,-78.46308000
11.23276991,-73.99212000
11.23532991,-73.99212000
11.23788991,-78.46308000
11.24044991,-78.46308000
11.24300991,-78.46308000
11.24556991,-78.46308000
11.24812991,-78.46308000
11.25068991,-78.46308000
11.25324991,-78.46308000
11.25580991,-78.46308000
11.25836991,-78.46308000
11.26092991,-73.99212000
11.26348991,-73.99212000
11.26604991,-73.99212000
11.26860991,-78.46308000
11.27116991,-73.99212000
11.27372991,-73.99212000
11.27628991,-73.99212000
11.27884991,-78.46308000
11.28140991,-73.99212000
11.28396991,-73.99212000
11.28652991,-78.46308000
11.28908991,-73.99212000
11.29164991,-73.99212000
11.29420991,-78.46308000
11.29676991,-78.46308000
11.29932991,-78.46308000
11.30188991,-78.46308000
11.30444991,-73.99212000
11.30700991,-78.46308000
11.30956991,-73.99212000
11.31212991,-78.46308000
11.31468991,-73.99212000
11.31724991,-78.46308000
11.31980991,-73.99212000
11.32236991,-73.99212000
11.32492991,-73.99212000
11.32748991,-78.46308000
11.33004991,-78.46308000
11.33260991,-73.99212000
11.33516991,-78.46308000
11.33772991,-78.46308000
11.34028991,-78.46308000
11.34284991,-78.46308000
11.34540991,-78.46308000
11.34796991,-78.46308000
11.35052991,-78.46308000
11.35308991,-78.46308000
11.35564991,-73.99212000
11.35820991,-78.46308000
11.36076991,-78.46308000
11.36332991,-78.46308000
11.36588991,-78.46308000
11.36844991,-78.46308000
11.37100991,-78.46308000
11.37356991,-78.46308000
11.37612991,-78.46308000
11.37868991,-73.99212000
11.38124991,-78.46308000
11.38380991,-78.46308000
11.38636991,-78.46308000
11.38892991,-78.46308000
11.39148991,-78.46308000
11.39404991,-78.46308000
11.39660991,-78.46308000
11.39916991,-78.46308000
11.40172991,-73.99212000
11.40428991,-78.46308000
11.40684991,-73.99212000
11.40940991,-73.99212000
11.41196991,-78.46308000
11.41452991,-78.46308000
11.41708991,-78.46308000
11.41964991,-78.46308000
11.42220991,-78.46308000
11.42476991,-78.46308000
11.42732991,-78.46308000
11.42988991,-78.46308000
11.43244991,-78.46308000
11.43500991,-78.46308000
11.43756991,-78.46308000
11.44012991,-78.46308000
11.44268991,-78.46308000
11.44524991,-78.46308000
11.44780991,-78.46308000
11.45036991,-78.46308000
11.45292991,-78.46308000
11.45548991,-78.46308000
11.45804991,-78.46308000
11.46060991,-78.46308000
11.46316991,-78.46308000
11.46572991,-78.46308000
11.46828991,-78.46308000
11.47084991,-78.46308000
11.47340991,-78.46308000
11.47596991,-78.46308000
11.47852991,-78.46308000
11.48108991,-78.46308000
11.48364991,-78.46308000
11.48620991,-78.46308000
11.48876991,-78.46308000
11.49132991,-78.46308000
11.49388991,-78.46308000
11.49644991,-78.46308000
11.49900991,-78.46308000
11.50156991,-78.46308000
11.50412991,-78.46308000
11.50668991,-78.46308000
11.50924991,-78.46308000
11.51180991,-78.46308000
11.51436991,-78.46308000
11.51692991,-78.46308000
11.51948991,-78.46308000
11.52204991,-78.46308000
11.52460991,-78.46308000
11.52716991,-78.46308000
11.52972991,-78.46308000
11.53228991,-78.46308000
11.53484991,-78.46308000
11.53740991,-78.46308000
11.53996991,-78.46308000
11.54252991,-78.46308000
11.54508991,-78.46308000
11.54764991,-78.46308000
11.55020991,-78.46308000
11.55276991,-78.46308000
11.55532991,-78.46308000
11.55788991,-78.46308000
11.56044991,-78.46308000
11.56300991,-78.46308000
11.56556991,-78.46308000
11.56812991,-78.46308000
11.57068991,-78.46308000
11.57324991,-78.46308000
11.57580991,-78.46308000
11.57836991,-78.46308000
11.58092991,-78.46308000
11.58348991,-78.46308000
11.58604991,-78.46308000
11.58860991,-78.46308000
11.59116991,-78.46308000
11.59372991,-78.46308000
11.59628991,-78.46308000
11.59884991,-78.46308000
11.60140991,-78.46308000
11.60396991,-78.46308000
11.60652991,-78.46308000
11.60908991,-78.46308000
11.61164991,-78.46308000
11.61420991,-73.99212000
11.61676991,-78.46308000
11.61932991,-78.46308000
11.62188991,-78.46308000
11.62444991,-78.46308000
11.62700991,-78.46308000
11.62956991,-78.46308000
11.63212991,-78.46308000
11.63468991,-78.46308000
11.63724991,-78.46308000
11.63980991,-78.46308000
11.64236991,-78.46308000
11.64492991,-78.46308000
11.64748991,-78.46308000
11.65004991,-78.46308000
11.65260991,-78.46308000
11.65516991,-78.46308000
11.65772991,-78.46308000
11.66028991,-78.46308000
11.66284991,-78.46308000
11.66540991,-78.46308000
11.66796991,-78.46308000
11.67052991,-78.46308000
11.67308991,-78.46308000
11.67564991,-78.46308000
11.67820991,-78.46308000
11.68076991,-78.46308000
11.68332991,-78.46308000
11.68588991,-78.46308000
11.68844991,-78.46308000
11.69100991,-78.46308000
11.69356991,-78.46308000
11.69612991,-78.46308000
11.69868991,-78.46308000
11.70124991,-73.99212000
11.70380991,-78.46308000
11.70636991,-78.46308000
11.70892991,-78.46308000
11.71148991,-78.46308000
11.71404991,-78.46308000
11.71660991,-78.46308000
11.71916991,-78.46308000
11.72172991,-78.46308000
11.72428991,-78.46308000
11.72684991,-78.46308000
11.72940991,-78.46308000
11.73196990,-78.46308000
11.73452990,-78.46308000
11.73708990,-78.46308000
11.73964990,-78.46308000
11.74220990,-78.46308000
11.74476990,-78.46308000
11.74732990,-78.46308000
11.74988990,-78.46308000
11.75244990,-78.46308000
11.75500990,-78.46308000
11.75756990,-78.46308000
11.76012990,-78.46308000
11.76268990,-78.46308000
11.76524990,-78.46308000
11.76780990,-78.46308000
11.77036990,-78.46308000
11.77292990,-78.46308000
11.77548990,-78.46308000
11.77804990,-78.46308000
11.78060990,-78.46308000
11.78316990,-78.46308000
11.78572990,-78.46308000
11.78828990,-78.46308000
11.79084990,-78.46308000
11.79340990,-78.46308000
11.79596990,-78.46308000
11.79852990,-78.46308000
11.80108990,-78.46308000
11.80364990,-78.46308000
11.80620990,-78.46308000
11.80876990,-78.46308000
11.81132990,-78.46308000
11.81388990,-78.46308000
11.81644990,-78.46308000
11.81900990,-78.46308000
11.82156990,-73.99212000
11.82412990,-78.46308000
11.82668990,-78.46308000
11.82924990,-78.46308000
11.83180990,-78.46308000
11.83436990,-73.99212000
11.83692990,-73.99212000
11.83948990,-78.46308000
11.84204990,-73.99212000
11.84460990,-78.46308000
11.84716990,-78.46308000
11.84972990,-73.99212000
11.85228990,-73.99212000
11.85484990,-73.99212000
11.85740990,-73.99212000
11.85996990,-78.46308000
11.86252990,-78.46308000
11.86508990,-78.46308000
11.86764990,-73.99212000
11.87020990,-78.46308000
11.87276990,-78.46308000
11.87532990,-78.46308000
11.87788990,-78.46308000
11.88044990,-78.46308000
11.88300990,-78.46308000
11.88556990,-78.46308000
11.88812990,-78.46308000
11.89068990,-78.46308000
11.89324990,-73.99212000
11.89580990,-73.99212000
11.89836990,-78.46308000
11.90092990,-73.99212000
11.90348990,-73.99212000
11.90604990,-78.46308000
11.90860990,-78.46308000
11.91116990,-73.99212000
11.91372990,-78.46308000
11.91628990,-73.99212000
11.91884990,-73.99212000
11.92140990,-73.99212000
11.92396990,-73.99212000
11.92652990,-73.99212000
11.92908990,-73.99212000
11.93164990,-78.46308000
11.93420990,-78.46308000
11.93676990,-78.46308000
11.93932990,-78.46308000
11.94188990,-78.46308000
11.94444990,-73.99212000
11.94700990,-73.99212000
11.94956990,-78.46308000
11.95212990,-73.99212000
11.95468990,-73.99212000
11.95724990,-73.99212000
11.95980990,-78.46308000
11.96236990,-78.46308000
11.96492990,-78.46308000
11.96748990,-78.46308000
11.97004990,-73.99212000
11.97260990,-78.46308000
11.97516990,-78.46308000
11.97772990,-78.46308000
11.98028990,-73.99212000
11.98284990,-78.46308000
11.98540990,-78.46308000
11.98796990,-73.99212000
11.99052990,-78.46308000
11.99308990,-73.99212000
11.99564990,-78.46308000
11.99820990,-73.99212000
12.00076990,-78.46308000
12.00332990,-78.46308000
12.00588990,-78.46308000
12.00844990,-73.99212000
12.01100990,-73.99212000
12.01356990,-78.46308000
12.01612990,-73.99212000
12.01868990,-78.46308000
12.02124990,-78.46308000
12.02380990,-78.46308000
12.02636990,-78.46308000
12.02892990,-73.99212000
12.03148990,-73.99212000
12.03404990,-73.99212000
12.03660990,-78.46308000
12.03916990,-73.99212000
12.04172990,-78.46308000
12.04428990,-78.46308000
12.04684990,-78.46308000
12.04940990,-78.46308000
12.05196990,-78.46308000
12.05452990,-73.99212000
12.05708990,-78.46308000
12.05964990,-78.46308000
12.06220990,-78.46308000
12.06476990,-78.46308000
12.06732990,-73.99212000
12.06988990,-78.46308000
12.07244990,-78.46308000
12.07500990,-78.46308000
12.07756990,-78.46308000
12.08012990,-78.46308000
12.08268990,-78.46308000
12.08524990,-78.46308000
12.08780990,-78.46308000
12.09036990,-78.46308000
12.09292990,-78.46308000
12.09548990,-78.46308000
12.09804990,-78.46308000
12.10060990,-78.46308000
12.10316990,-78.46308000
12.10572990,-78.46308000
12.10828990,-78.46308000
12.11084990,-78.46308000
12.11340990,-78.46308000
12.11596990,-73.99212000
12.11852990,-78.46308000
12.12108990,-73.99212000
12.12364990,-73.99212000
12.12620990,-78.46308000
12.12876990,-78.46308000
12.13132990,-78.46308000
12.13388990,-73.99212000
12.13644990,-78.46308000
12.13900990,-73.99212000
12.14156990,-78.46308000
12.14412990,-73.99212000
12.14668990,-78.46308000
12.14924990,-78.46308000
12.15180990,-78.46308000
12.15436990,-78.46308000
12.15692990,-78.46308000
12.15948990,-73.99212000
12.16204990,-78.46308000
12.16460990,-78.46308000
12.16716990,-78.46308000
12.16972990,-73.99212000
12.17228990,-73.99212000
12.17484990,-73.99212000
12.17740990,-78.46308000
12.17996990,-73.99212000
12.18252990,-73.99212000
12.18508990,-73.99212000
12.18764990,-73.99212000
12.19020990,-78.46308000
12.19276990,-73.99212000
12.19532990,-73.99212000
12.19788990,-73.99212000
12.20044990,-73.99212000
12.20300990,-78.46308000
12.20556990,-73.99212000
12.20812990,-73.99212000
12.21068990,-73.99212000
12.21324990,-73.99212000
12.21580990,-73.99212000
12.21836990,-73.99212000
12.22092990,-73.99212000
12.22348990,-73.99212000
12.22604990,-78.46308000
12.22860990,-73.99212000
12.23116990,-73.99212000
12.23372990,-78.46308000
12.23628990,-73.99212000
12.23884990,-78.46308000
12.24140990,-73.99212000
12.24396990,-73.99212000
12.24652990,-73.99212000
12.24908990,-73.99212000
12.25164990,-73.99212000
12.25420990,-73.99212000
12.25676990,-73.99212000
12.25932990,-73.99212000
12.26188990,-73.99212000
12.26444990,-73.99212000
12.26700990,-73.99212000
12.26956990,-73.99212000
12.27212990,-73.99212000
12.27468990,-73.99212000
12.27724990,-73.99212000
12.27980990,-73.99212000
12.28236990,-78.46308000
12.28492990,-78.46308000
12.28748990,-78.46308000
12.29004990,-73.99212000
12.29260990,-73.99212000
12.29516990,-78.46308000
12.29772990,-78.46308000
12.30028990,-73.99212000
12.30284990,-78.46308000
12.30540990,-78.46308000
12.30796990,-73.99212000
12.31052990,-73.99212000
12.31308990,-73.99212000
12.31564990,-73.99212000
12.31820990,-73.99212000
12.32076990,-73.99212000
12.32332990,-78.46308000
12.32588990,-78.46308000
12.32844990,-78.46308000
12.33100990,-78.46308000
12.33356990,-78.46308000
12.33612990,-78.46308000
12.33868990,-73.99212000
12.34124990,-78.46308000
12.34380990,-78.46308000
12.34636990,-78.46308000
12.34892990,-78.46308000
12.35148990,-78.46308000
12.35404990,-78.46308000
12.35660990,-73.99212000
12.35916990,-78.46308000
12.36172990,-78.46308000
12.36428990,-78.46308000
12.36684990,-78.46308000
12.36940990,-78.46308000
12.37196990,-78.46308000
12.37452990,-78.46308000
12.37708990,-73.99212000
12.37964990,-78.46308000
12.38220990,-73.99212000
12.38476990,-78.46308000
12.38732990,-78.46308000
12.38988990,-78.46308000
12.39244990,-73.99212000
12.39500990,-73.99212000
12.39756990,-78.46308000
12.40012990,-78.46308000
12.40268990,-78.46308000
12.40524990,-73.99212000
12.40780990,-73.99212000
12.41036990,-78.46308000
12.41292990,-73.99212000
12.41548990,-78.46308000
12.41804990,-78.46308000
12.42060990,-73.99212000
12.42316990,-78.46308000
12.42572990,-73.99212000
12.42828990,-73.99212000
12.43084990,-73.99212000
12.43340990,-73.99212000
12.43596990,-73.99212000
12.43852990,-78.46308000
12.44108990,-78.46308000
12.44364990,-73.99212000
12.44620990,-78.46308000
12.44876990,-78.46308000
12.45132990,-78.46308000
12.45388990,-73.99212000
12.45644990,-78.46308000
12.45900990,-78.46308000
12.46156990,-73.99212000
12.46412990,-78.46308000
12.46668990,-73.99212000
12.46924990,-78.46308000
12.47180990,-73.99212000
12.47436990,-73.99212000
12.47692990,-78.46308000
12.47948990,-73.99212000
12.48204990,-73.99212000
12.48460990,-78.46308000
12.48716990,-73.99212000
12.48972990,-73.99212000
12.49228990,-73.99212000
12.49484990,-73.99212000
12.49740990,-73.99212000
12.49996990,-73.99212000
12.50252990,-73.99212000
12.50508990,-73.99212000
12.50764990,-73.99212000
12.51020990,-73.99212000
12.51276990,-73.99212000
12.51532990,-73.99212000
12.51788990,-73.99212000
12.52044990,-73.99212000
12.52300990,-78.46308000
12.52556990,-78.46308000
12.52812990,-73.99212000
12.53068990,-78.46308000
12.53324990,-73.99212000
12.53580990,-73.99212000
12.53836990,-78.46308000
12.54092990,-78.46308000
12.54348990,-73.99212000
12.54604990,-73.99212000
12.54860990,-73.99212000
12.55116990,-73.99212000
12.55372990,-73.99212000
12.55628990,-78.46308000
12.55884990,-78.46308000
12.56140990,-78.46308000
12.56396990,-73.99212000
12.56652990,-73.99212000
12.56908990,-73.99212000
12.57164990,-78.46308000
12.57420990,-73.99212000
12.57676990,-73.99212000
12.57932990,-78.46308000
12.58188990,-73.99212000
12.58444990,-73.99212000
12.58700990,-78.46308000
12.58956990,-73.99212000
12.59212990,-78.46308000
12.59468990,-73.99212000
12.59724990,-78.46308000
12.59980990,-73.99212000
12.60236990,-78.46308000
12.60492990,-73.99212000
12.60748990,-78.46308000
12.61004990,-73.99212000
12.61260990,-73.99212000
12.61516990,-73.99212000
12.61772990,-78.46308000
12.62028990,-78.46308000
12.62284990,-73.99212000
12.62540990,-78.46308000
12.62796990,-78.46308000
12.63052990,-78.46308000
12.63308990,-73.99212000
12.63564990,-73.99212000
12.63820990,-73.99212000
12.64076990,-78.46308000
12.64332990,-73.99212000
12.64588990,-73.99212000
12.64844990,-78.46308000
12.65100990,-73.99212000
12.65356990,-78.46308000
12.65612990,-78.46308000
12.65868990,-73.99212000
12.66124990,-73.99212000
12.66380990,-73.99212000
12.66636990,-73.99212000
12.66892990,-78.46308000
12.67148990,-78.46308000
12.67404990,-73.99212000
12.67660990,-78.46308000
12.67916990,-73.99212000
12.68172990,-73.99212000
12.68428990,-73.99212000
12.68684990,-78.46308000
12.68940990,-78.46308000
12.69196990,-73.99212000
12.69452990,-73.99212000
12.69708990,-73.99212000
12.69964990,-73.99212000
12.70220990,-73.99212000
12.70476990,-78.46308000
12.70732990,-78.46308000
12.70988990,-73.99212000
12.71244990,-73.99212000
12.71500990,-73.99212000
12.71756990,-73.99212000
12.72012990,-73.99212000
12.72268990,-78.46308000
12.72524990,-73.99212000
12.72780990,-73.99212000
12.73036990,-73.99212000
12.73292990,-73.99212000
12.73548990,-73.99212000
12.73804990,-73.99212000
12.74060990,-73.99212000
12.74316990,-73.99212000
12.74572990,-73.99212000
12.74828990,-73.99212000
12.75084990,-78.46308000
12.75340990,-73.99212000
12.75596990,-73.99212000
12.75852990,-73.99212000
12.76108990,-73.99212000
12.76364990,-69.50591000
12.76620990,-73.99212000
12.76876990,-73.99212000
12.77132990,-73.99212000
12.77388990,-73.99212000
12.77644990,-73.99212000
12.77900990,-73.99212000
12.78156990,-73.99212000
12.78412990,-73.99212000
12.78668990,-73.99212000
12.78924990,-73.99212000
12.79180990,-73.99212000
12.79436990,-73.99212000
12.79692990,-78.46308000
12.79948990,-78.46308000
12.80204990,-73.99212000
12.80460990,-73.99212000
12.80716990,-78.46308000
12.80972990,-78.46308000
12.81228990,-78.46308000
12.81484990,-78.46308000
12.81740990,-78.46308000
12.81996990,-78.46308000
12.82252990,-78.46308000
12.82508990,-78.46308000
12.82764990,-78.46308000
12.83020990,-73.99212000
12.83276990,-78.46308000
12.83532990,-78.46308000
12.83788990,-78.46308000
12.84044990,-78.46308000
12.84300990,-78.46308000
12.84556990,-78.46308000
12.84812990,-78.46308000
12.85068990,-78.46308000
12.85324990,-78.46308000
12.85580990,-78.46308000
12.85836990,-78.46308000
12.86092990,-78.46308000
12.86348990,-78.46308000
12.86604990,-78.46308000
12.86860990,-78.46308000
12.87116990,-78.46308000
12.87372990,-78.46308000
12.87628990,-78.46308000
12.87884990,-78.46308000
12.88140990,-78.46308000
12.88396990,-78.46308000
12.88652990,-78.46308000
12.88908990,-78.46308000
12.89164990,-78.46308000
12.89420990,-78.46308000
12.89676990,-78.46308000
12.89932990,-78.46308000
12.90188990,-78.46308000
12.90444990,-78.46308000
12.90700990,-78.46308000
12.90956990,-78.46308000
12.91212990,-78.46308000
12.91468990,-78.46308000
12.91724990,-78.46308000
12.91980990,-78.46308000
12.92236990,-78.46308000
12.92492990,-78.46308000
12.92748990,-78.46308000
12.93004990,-78.46308000
12.93260990,-78.46308000
12.93516990,-78.46308000
12.93772990,-78.46308000
12.94028990,-78.46308000
12.94284990,-78.46308000
12.94540990,-78.46308000
12.94796990,-78.46308000
12.95052990,-78.46308000
12.95308990,-78.46308000
12.95564990,-78.46308000
12.95820990,-78.46308000
12.96076990,-78.46308000
12.96332990,-78.46308000
12.96588990,-78.46308000
12.96844990,-78.46308000
12.97100990,-78.46308000
12.97356990,-78.46308000
12.97612990,-78.46308000
12.97868990,-78.46308000
12.98124990,-78.46308000
12.98380990,-78.46308000
12.98636990,-78.46308000
12.98892990,-78.46308000
12.99148990,-78.46308000
12.99404990,-78.46308000
12.99660990,-78.46308000
12.99916990,-78.46308000
13.00172990,-78.46308000
13.00428990,-78.46308000
13.00684990,-78.46308000
13.00940990,-78.46308000
13.01196990,-73.99212000
13.01452990,-78.46308000
13.01708990,-73.99212000
13.01964990,-78.46308000
13.02220990,-73.99212000
13.02476990,-78.46308000
13.02732990,-73.99212000
13.02988990,-78.46308000
13.03244990,-78.46308000
13.03500990,-73.99212000
13.03756990,-73.99212000
13.04012990,-73.99212000
13.04268990,-73.99212000
13.04524990,-73.99212000
13.04780990,-73.99212000
13.05036990,-73.99212000
13.05292990,-73.99212000
13.05548990,-73.99212000
13.05804990,-73.99212000
13.06060990,-73.99212000
13.06316990,-73.99212000
13.06572990,-73.99212000
13.06828990,-73.99212000
13.07084990,-73.99212000
13.07340990,-73.99212000
13.07596990,-73.99212000
13.07852990,-73.99212000
13.08108990,-78.46308000
13.08364990,-73.99212000
13.08620990,-73.99212000
13.08876990,-73.99212000
13.09132990,-73.99212000
13.09388990,-73.99212000
13.09644990,-69.50591000
13.09900990,-73.99212000
13.10156990,-73.99212000
13.10412990,-73.99212000
13.10668990,-69.50591000
13.10924990,-73.99212000
13.11180990,-69.50591000
13.11436990,-73.99212000
13.11692990,-73.99212000
13.11948990,-73.99212000
13.12204990,-73.99212000
13.12460990,-69.50591000
13.12716990,-73.99212000
13.12972990,-73.99212000
13.13228990,-73.99212000
13.13484990,-73.99212000
13.13740990,-73.99212000
13.13996990,-73.99212000
13.14252990,-73.99212000
13.14508990,-73.99212000
13.14764990,-73.99212000
13.15020990,-73.99212000
13.15276990,-73.99212000
13.15532990,-73.99212000
13.15788990,-73.99212000
13.16044990,-73.99212000
13.16300990,-69.50591000
13.16556990,-73.99212000
13.16812990,-73.99212000
13.17068990,-73.99212000
13.17324990,-73.99212000
13.17580990,-69.50591000
13.17836990,-78.46308000
13.18092990,-73.99212000
13.18348990,-78.46308000
13.18604990,-78.46308000
13.18860990,-78.46308000
13.19116990,-78.46308000
13.19372990,-78.46308000
13.19628990,-78.46308000
13.19884990,-78.46308000
13.20140990,-78.46308000
13.20396990,-73.99212000
13.20652990,-73.99212000
13.20908990,-73.99212000
13.21164990,-73.99212000
13.21420990,-78.46308000
13.21676990,-78.46308000
13.21932990,-73.99212000
13.22188990,-78.46308000
13.22444990,-78.46308000
13.22700990,-73.99212000
13.22956990,-73.99212000
13.23212990,-78.46308000
13.23468990,-73.99212000
13.23724990,-78.46308000
13.23980990,-73.99212000
13.24236990,-78.46308000
13.24492990,-78.46308000
13.24748990,-78.46308000
13.25004990,-78.46308000
13.25260990,-78.46308000
13.25516990,-78.46308000
13.25772990,-78.46308000
13.26028990,-78.46308000
13.26284990,-78.46308000
13.26540990,-78.46308000
13.26796990,-78.46308000
13.27052990,-73.99212000
13.27308990,-78.46308000
13.27564990,-78.46308000
13.27820990,-78.46308000
13.28076990,-78.46308000
13.28332990,-78.46308000
13.28588990,-78.46308000
13.28844990,-78.46308000
13.29100990,-78.46308000
13.29356990,-78.46308000
13.29612990,-78.46308000
13.29868990,-78.46308000
13.30124990,-78.46308000
13.30380990,-78.46308000
13.30636990,-78.46308000
13.30892990,-78.46308000
13.31148990,-78.46308000
13.31404990,-78.46308000
13.31660990,-78.46308000
13.31916990,-78.46308000
13.32172990,-78.46308000
13.32428990,-78.46308000
13.32684990,-78.46308000
13.32940990,-78.46308000
13.33196990,-78.46308000
13.33452990,-78.46308000
13.33708990,-78.46308000
13.33964990,-78.46308000
13.34220990,-78.46308000
13.34476990,-78.46308000
13.34732990,-78.46308000
13.34988990,-78.46308000
13.35244990,-78.46308000
13.35500990,-78.46308000
13.35756990,-78.46308000
13.36012990,-78.46308000
13.36268990,-78.46308000
13.36524990,-78.46308000
13.36780990,-78.46308000
13.37036990,-78.46308000
13.37292990,-78.46308000
13.37548989,-78.46308000
13.37804989,-78.46308000
13.38060989,-78.46308000
13.38316989,-78.46308000
13.38572989,-78.46308000
13.38828989,-78.46308000
13.39084989,-78.46308000
13.39340989,-78.46308000
13.39596989,-78.46308000
13.39852989,-78.46308000
13.40108989,-78.46308000
13.40364989,-78.46308000
13.40620989,-78.46308000
13.40876989,-78.46308000
13.41132989,-73.99212000
13.41388989,-78.46308000
13.41644989,-78.46308000
13.41900989,-78.46308000
13.42156989,-78.46308000
13.42412989,-78.46308000
13.42668989,-78.46308000
13.42924989,-78.46308000
13.43180989,-78.46308000
13.43436989,-78.46308000
13.43692989,-78.46308000
13.43948989,-78.46308000
13.44204989,-78.46308000
13.44460989,-78.46308000
13.44716989,-78.46308000
13.44972989,-78.46308000
13.45228989,-78.46308000
13.45484989,-78.46308000
13.45740989,-78.46308000
13.45996989,-78.46308000
13.46252989,-78.46308000
13.46508989,-78.46308000
13.46764989,-78.46308000
13.47020989,-73.99212000
13.47276989,-78.46308000
13.47532989,-78.46308000
13.47788989,-78.46308000
13.48044989,-78.46308000
13.48300989,-78.46308000
13.48556989,-78.46308000
13.48812989,-78.46308000
13.49068989,-78.46308000
13.49324989,-78.46308000
13.49580989,-78.46308000
13.49836989,-78.46308000
13.50092989,-78.46308000
13.50348989,-78.46308000
13.50604989,-78.46308000
13.50860989,-78.46308000
13.51116989,-78.46308000
13.51372989,-78.46308000
13.51628989,-78.46308000
13.51884989,-78.46308000
13.52140989,-78.46308000
13.52396989,-78.46308000
13.52652989,-78.46308000
13.52908989,-78.46308000
13.53164989,-78.46308000
13.53420989,-78.46308000
13.53676989,-78.46308000
13.53932989,-78.46308000
13.54188989,-78.46308000
13.54444989,-78.46308000
13.54700989,-78.46308000
13.54956989,-78.46308000
13.55212989,-78.46308000
13.55468989,-78.46308000
13.55724989,-73.99212000
13.55980989,-78.46308000
13.56236989,-78.46308000
13.56492989,-78.46308000
13.56748989,-78.46308000
13.57004989,-78.46308000
13.57260989,-78.46308000
13.57516989,-78.46308000
13.57772989,-78.46308000
13.58028989,-78.46308000
13.58284989,-78.46308000
13.58540989,-78.46308000
13.58796989,-78.46308000
13.59052989,-78.46308000
13.59308989,-78.46308000
13.59564989,-78.46308000
13.59820989,-78.46308000
13.60076989,-78.46308000
13.60332989,-78.46308000
13.60588989,-78.46308000
13.60844989,-78.46308000
13.61100989,-78.46308000
13.61356989,-78.46308000
13.61612989,-78.46308000
13.61868989,-78.46308000
13.62124989,-78.46308000
13.62380989,-78.46308000
13.62636989,-78.46308000
13.62892989,-78.46308000
13.63148989,-78.46308000
13.63404989,-78.46308000
13.63660989,-78.46308000
13.63916989,-78.46308000
13.64172989,-78.46308000
13.64428989,-78.46308000
13.64684989,-78.46308000
13.64940989,-78.46308000
13.65196989,-78.46308000
13.65452989,-78.46308000
13.65708989,-78.46308000
13.65964989,-78.46308000
13.66220989,-78.46308000
13.66476989,-78.46308000
13.66732989,-78.46308000
13.66988989,-78.46308000
13.67244989,-78.46308000
13.67500989,-78.46308000
13.67756989,-78.46308000
13.68012989,-78.46308000
13.68268989,-78.46308000
13.68524989,-78.46308000
13.68780989,-78.46308000
13.69036989,-78.46308000
13.69292989,-78.46308000
13.69548989,-78.46308000
13.69804989,-78.46308000
13.70060989,-78.46308000
13.70316989,-78.46308000
13.70572989,-78.46308000
13.70828989,-78.46308000
13.71084989,-78.46308000
13.71340989,-78.46308000
13.71596989,-73.99212000
13.71852989,-78.46308000
13.72108989,-78.46308000
13.72364989,-78.46308000
13.72620989,-78.46308000
13.72876989,-78.46308000
13.73132989,-78.46308000
13.73388989,-78.46308000
13.73644989,-78.46308000
13.73900989,-78.46308000
13.74156989,-78.46308000
13.74412989,-78.46308000
13.74668989,-78.46308000
13.74924989,-78.46308000
13.75180989,-78.46308000
13.75436989,-73.99212000
13.75692989,-73.99212000
13.75948989,-78.46308000
13.76204989,-78.46308000
13.76460989,-78.46308000
13.76716989,-78.46308000
13.76972989,-78.46308000
13.77228989,-78.46308000
13.77484989,-73.99212000
13.77740989,-78.46308000
13.77996989,-73.99212000
13.78252989,-73.99212000
13.78508989,-78.46308000
13.78764989,-78.46308000
13.79020989,-78.46308000
13.79276989,-78.46308000
13.79532989,-78.46308000
13.79788989,-73.99212000
13.80044989,-78.46308000
13.80300989,-73.99212000
13.80556989,-73.99212000
13.80812989,-73.99212000
13.81068989,-73.99212000
13.81324989,-73.99212000
13.81580989,-73.99212000
13.81836989,-73.99212000
13.82092989,-73.99212000
13.82348989,-78.46308000
13.82604989,-73.99212000
13.82860989,-78.46308000
13.83116989,-73.99212000
13.83372989,-73.99212000
13.83628989,-73.99212000
13.83884989,-73.99212000
13.84140989,-73.99212000
13.84396989,-78.46308000
13.84652989,-78.46308000
13.84908989,-73.99212000
13.85164989,-73.99212000
13.85420989,-73.99212000
13.85676989,-73.99212000
13.85932989,-73.99212000
13.86188989,-78.46308000
13.86444989,-78.46308000
13.86700989,-73.99212000
13.86956989,-73.99212000
13.87212989,-78.46308000
13.87468989,-73.99212000
13.87724989,-73.99212000
13.87980989,-73.99212000
13.88236989,-73.99212000
13.88492989,-73.99212000
13.88748989,-73.99212000
13.89004989,-73.99212000
13.89260989,-73.99212000
13.89516989,-78.46308000
13.89772989,-73.99212000
13.90028989,-73.99212000
13.90284989,-78.46308000
13.90540989,-78.46308000
13.90796989,-78.46308000
13.91052989,-78.46308000
13.91308989,-73.99212000
13.91564989,-78.46308000
13.91820989,-73.99212000
13.92076989,-78.46308000
13.92332989,-78.46308000
13.92588989,-78.46308000
13.92844989,-73.99212000
13.93100989,-73.99212000
13.93356989,-78.46308000
13.93612989,-73.99212000
13.93868989,-73.99212000
13.94124989,-78.46308000
13.94380989,-78.46308000
13.94636989,-78.46308000
13.94892989,-73.99212000
13.95148989,-78.46308000
13.95404989,-73.99212000
13.95660989,-78.46308000
13.95916989,-73.99212000
13.96172989,-78.46308000
13.96428989,-78.46308000
13.96684989,-78.46308000
13.96940989,-73.99212000
13.97196989,-78.46308000
13.97452989,-73.99212000
13.97708989,-78.46308000
13.97964989,-78.46308000
13.98220989,-73.99212000
13.98476989,-78.46308000
13.98732989,-78.46308000
13.98988989,-78.46308000
13.99244989,-78.46308000
13.99500989,-78.46308000
13.99756989,-78.46308000
14.00012989,-73.99212000
14.00268989,-78.46308000
14.00524989,-78.46308000
14.00780989,-78.46308000
14.01036989,-78.46308000
14.01292989,-73.99212000
14.01548989,-78.46308000
14.01804989,-78.46308000
14.02060989,-78.46308000
14.02316989,-78.46308000
14.02572989,-78.46308000
14.02828989,-73.99212000
14.03084989,-78.46308000
14.03340989,-78.46308000
14.03596989,-78.46308000
14.03852989,-78.46308000
14.04108989,-78.46308000
14.04364989,-78.46308000
14.04620989,-78.46308000
14.04876989,-78.46308000
14.05132989,-78.46308000
14.05388989,-78.46308000
14.05644989,-78.46308000
14.05900989,-78.46308000
14.06156989,-78.46308000
14.06412989,-78.46308000
14.06668989,-78.46308000
14.06924989,-78.46308000
14.07180989,-78.46308000
14.07436989,-78.46308000
14.07692989,-78.46308000
14.07948989,-78.46308000
14.08204989,-78.46308000
14.08460989,-78.46308000
14.08716989,-78.46308000
14.08972989,-78.46308000
14.09228989,-78.46308000
14.09484989,-78.46308000
14.09740989,-78.46308000
14.09996989,-78.46308000
14.10252989,-78.46308000
14.10508989,-78.46308000
14.10764989,-78.46308000
14.11020989,-78.46308000
14.11276989,-78.46308000
14.11532989,-78.46308000
14.11788989,-78.46308000
14.12044989,-78.46308000
14.12300989,-78.46308000
14.12556989,-78.46308000
14.12812989,-78.46308000
14.13068989,-78.46308000
14.13324989,-78.46308000
14.13580989,-78.46308000
14.13836989,-78.46308000
14.14092989,-78.46308000
14.14348989,-78.46308000
14.14604989,-78.46308000
14.14860989,-78.46308000
14.15116989,-78.46308000
14.15372989,-78.46308000
14.15628989,-78.46308000
14.15884989,-78.46308000
14.16140989,-78.46308000
14.16396989,-78.46308000
14.16652989,-78.46308000
14.16908989,-78.46308000
14.17164989,-78.46308000
14.17420989,-78.46308000
14.17676989,-78.46308000
14.17932989,-78.46308000
14.18188989,-78.46308000
14.18444989,-78.46308000
14.18700989,-78.46308000
14.18956989,-78.46308000
14.19212989,-78.46308000
14.19468989,-78.46308000
14.19724989,-78.46308000
14.19980989,-78.46308000
14.20236989,-78.46308000
14.20492989,-78.46308000
14.20748989,-78.46308000
14.21004989,-78.46308000
14.21260989,-78.46308000
14.21516989,-78.46308000
14.21772989,-78.46308000
14.22028989,-78.46308000
14.22284989,-78.46308000
14.22540989,-78.46308000
14.22796989,-78.46308000
14.23052989,-78.46308000
14.23308989,-78.46308000
14.23564989,-78.46308000
14.23820989,-78.46308000
14.24076989,-78.46308000
14.24332989,-78.46308000
14.24588989,-78.46308000
14.24844989,-78.46308000
14.25100989,-78.46308000
14.25356989,-78.46308000
14.25612989,-78.46308000
14.25868989,-78.46308000
14.26124989,-78.46308000
14.26380989,-78.46308000
14.26636989,-78.46308000
14.26892989,-78.46308000
14.27148989,-78.46308000
14.27404989,-78.46308000
14.27660989,-78.46308000
14.27916989,-78.46308000
14.28172989,-78.46308000
14.28428989,-78.46308000
14.28684989,-78.46308000
14.28940989,-78.46308000
14.29196989,-78.46308000
14.29452989,-78.46308000
14.29708989,-78.46308000
14.29964989,-78.46308000
14.30220989,-78.46308000
14.30476989,-78.46308000
14.30732989,-78.46308000
14.30988989,-78.46308000
14.31244989,-78.46308000
14.31500989,-78.46308000
14.31756989,-78.46308000
14.32012989,-78.46308000
14.32268989,-78.46308000
14.32524989,-78.46308000
14.32780989,-78.46308000
14.33036989,-78.46308000
14.33292989,-78.46308000
14.33548989,-78.46308000
14.33804989,-78.46308000
14.34060989,-78.46308000
14.34316989,-78.46308000
14.34572989,-78.46308000
14.34828989,-78.46308000
14.35084989,-78.46308000
14.35340989,-78.46308000
14.35596989,-78.46308000
14.35852989,-78.46308000
14.36108989,-78.46308000
14.36364989,-78.46308000
14.36620989,-78.46308000
14.36876989,-78.46308000
14.37132989,-78.46308000
14.37388989,-78.46308000
14.37644989,-78.46308000
14.37900989,-78.46308000
14.38156989,-78.46308000
14.38412989,-78.46308000
14.38668989,-78.46308000
14.38924989,-78.46308000
14.39180989,-78.46308000
14.39436989,-78.46308000
14.39692989,-78.46308000
14.39948989,-78.46308000
14.40204989,-78.46308000
14.40460989,-78.46308000
14.40716989,-78.46308000
14.40972989,-78.46308000
14.41228989,-78.46308000
14.41484989,-78.46308000
14.41740989,-78.46308000
14.41996989,-78.46308000
14.42252989,-78.46308000
14.42508989,-78.46308000
14.42764989,-78.46308000
14.43020989,-78.46308000
14.43276989,-78.46308000
14.43532989,-78.46308000
14.43788989,-78.46308000
14.44044989,-78.46308000
14.44300989,-78.46308000
14.44556989,-78.46308000
14.44812989,-78.46308000
14.45068989,-78.46308000
14.45324989,-78.46308000
14.45580989,-78.46308000
14.45836989,-78.46308000
14.46092989,-78.46308000
14.46348989,-78.46308000
14.46604989,-78.46308000
14.46860989,-78.46308000
14.47116989,-78.46308000
14.47372989,-78.46308000
14.47628989,-78.46308000
14.47884989,-78.46308000
14.48140989,-78.46308000
14.48396989,-78.46308000
14.48652989,-78.46308000
14.48908989,-78.46308000
14.49164989,-78.46308000
14.49420989,-78.46308000
14.49676989,-78.46308000
14.49932989,-78.46308000
14.50188989,-78.46308000
14.50444989,-78.46308000
14.50700989,-78.46308000
14.50956989,-78.46308000
14.51212989,-78.46308000
14.51468989,-78.46308000
14.51724989,-78.46308000
14.51980989,-78.46308000
14.52236989,-78.46308000
14.52492989,-78.46308000
14.52748989,-78.46308000
14.53004989,-78.46308000
14.53260989,-78.46308000
14.53516989,-78.46308000
14.53772989,-78.46308000
14.54028989,-78.46308000
14.54284989,-78.46308000
14.54540989,-78.46308000
14.54796989,-78.46308000
14.55052989,-78.46308000
14.55308989,-78.46308000
14.55564989,-78.46308000
14.55820989,-78.46308000
14.56076989,-78.46308000
14.56332989,-78.46308000
14.56588989,-78.46308000
14.56844989,-78.46308000
14.57100989,-78.46308000
14.57356989,-78.46308000
14.57612989,-78.46308000
14.57868989,-78.46308000
14.58124989,-78.46308000
14.58380989,-78.46308000
14.58636989,-78.46308000
14.58892989,-78.46308000
14.59148989,-78.46308000
14.59404989,-78.46308000
14.59660989,-78.46308000
14.59916989,-78.46308000
14.60172989,-78.46308000
14.60428989,-78.46308000
14.60684989,-78.46308000
14.60940989,-78.46308000
14.61196989,-78.46308000
14.61452989,-78.46308000
14.61708989,-78.46308000
14.61964989,-78.46308000
14.62220989,-78.46308000
14.62476989,-78.46308000
14.62732989,-78.46308000
14.62988989,-78.46308000
14.63244989,-78.46308000
14.63500989,-78.46308000
14.63756989,-78.46308000
14.64012989,-78.46308000
14.64268989,-78.46308000
14.64524989,-78.46308000
14.64780989,-78.46308000
14.65036989,-78.46308000
14.65292989,-78.46308000
14.65548989,-78.46308000
14.65804989,-78.46308000
14.66060989,-78.46308000
14.66316989,-78.46308000
14.66572989,-78.46308000
14.66828989,-78.46308000
14.67084989,-78.46308000
14.67340989,-78.46308000
14.67596989,-78.46308000
14.67852989,-78.46308000
14.68108989,-78.46308000
14.68364989,-78.46308000
14.68620989,-78.46308000
14.68876989,-78.46308000
14.69132989,-78.46308000
14.69388989,-78.46308000
14.69644989,-78.46308000
14.69900989,-78.46308000
14.70156989,-78.46308000
14.70412989,-78.46308000
14.70668989,-78.46308000
14.70924989,-73.99212000
14.71180989,-78.46308000
14.71436989,-78.46308000
14.71692989,-78.46308000
14.71948989,-78.46308000
14.72204989,-78.46308000
14.72460989,-78.46308000
14.72716989,-78.46308000
14.72972989,-78.46308000
14.73228989,-78.46308000
14.73484989,-73.99212000
14.73740989,-78.46308000
14.73996989,-78.46308000
14.74252989,-73.99212000
14.74508989,-78.46308000
14.74764989,-78.46308000
14.75020989,-78.46308000
14.75276989,-78.46308000
14.75532989,-73.99212000
14.75788989,-78.46308000
14.76044989,-78.46308000
14.76300989,-78.46308000
14.76556989,-78.46308000
14.76812989,-78.46308000
14.77068989,-78.46308000
14.77324989,-78.46308000
14.77580989,-78.46308000
14.77836989,-78.46308000
14.78092989,-78.46308000
14.78348989,-73.99212000
14.78604989,-73.99212000
14.78860989,-78.46308000
14.79116989,-78.46308000
14.79372989,-78.46308000
14.79628989,-78.46308000
14.79884989,-78.46308000
14.80140989,-78.46308000
14.80396989,-78.46308000
14.80652989,-78.46308000
14.80908989,-78.46308000
14.81164989,-78.46308000
14.81420989,-78.46308000
14.81676989,-78.46308000
14.81932989,-78.46308000
14.82188989,-73.99212000
14.82444989,-78.46308000
14.82700989,-78.46308000
14.82956989,-78.46308000
14.83212989,-78.46308000
14.83468989,-78.46308000
14.83724989,-78.46308000
14.83980989,-73.99212000
14.84236989,-73.99212000
14.84492989,-78.46308000
14.84748989,-78.46308000
14.85004989,-78.46308000
14.85260989,-73.99212000
14.85516989,-78.46308000
14.85772989,-78.46308000
14.86028989,-78.46308000
14.86284989,-78.46308000
14.86540989,-78.46308000
14.86796989,-78.46308000
14.87052989,-78.46308000
14.87308989,-78.46308000
14.87564989,-78.46308000
14.87820989,-78.46308000
14.88076989,-78.46308000
14.88332989,-78.46308000
14.88588989,-78.46308000
14.88844989,-78.46308000
14.89100989,-78.46308000
14.89356989,-78.46308000
14.89612989,-78.46308000
14.89868989,-78.46308000
14.90124989,-78.46308000
14.90380989,-78.46308000
14.90636989,-78.46308000
14.90892989,-78.46308000
14.91148989,-78.46308000
14.91404989,-78.46308000
14.91660989,-78.46308000
14.91916989,-78.46308000
14.92172989,-78.46308000
14.92428989,-78.46308000
14.92684989,-78.46308000
14.92940989,-78.46308000
14.93196989,-78.46308000
14.93452989,-78.46308000
14.93708989,-78.46308000
14.93964989,-78.46308000
14.94220989,-78.46308000
14.94476989,-78.46308000
14.94732989,-78.46308000
14.94988989,-78.46308000
14.95244989,-78.46308000
14.95500989,-78.46308000
14.95756989,-78.46308000
14.96012989,-78.46308000
14.96268989,-73.99212000
14.96524989,-78.46308000
14.96780989,-78.46308000
14.97036989,-78.46308000
14.97292989,-78.46308000
14.97548989,-78.46308000
14.97804989,-78.46308000
14.98060989,-78.46308000
14.98316989,-78.46308000
14.98572989,-78.46308000
14.98828989,-78.46308000
14.99084989,-78.46308000
14.99340989,-78.46308000
14.99596989,-78.46308000
14.99852989,-78.46308000
15.00108989,-78.46308000
15.00364989,-78.46308000
15.00620989,-73.99212000
15.00876989,-78.46308000
15.01132989,-78.46308000
15.01388989,-78.46308000
15.01644989,-78.46308000
15.01900989,-78.46308000
15.02156988,-78.46308000
15.02412988,-78.46308000
15.02668988,-78.46308000
15.02924988,-78.46308000
15.03180988,-78.46308000
15.03436988,-78.46308000
15.03692988,-78.46308000
15.03948988,-78.46308000
15.04204988,-78.46308000
15.04460988,-78.46308000
15.04716988,-78.46308000
15.04972988,-78.46308000
15.05228988,-78.46308000
15.05484988,-78.46308000
15.05740988,-78.46308000
15.05996988,-78.46308000
15.06252988,-78.46308000
15.06508988,-78.46308000
15.06764988,-78.46308000
15.07020988,-78.46308000
15.07276988,-78.46308000
15.07532988,-78.46308000
15.07788988,-78.46308000
15.08044988,-78.46308000
15.08300988,-78.46308000
15.08556988,-78.46308000
15.08812988,-78.46308000
15.09068988,-78.46308000
15.09324988,-78.46308000
15.09580988,-78.46308000
15.09836988,-78.46308000
15.10092988,-78.46308000
15.10348988,-78.46308000
15.10604988,-78.46308000
15.10860988,-78.46308000
15.11116988,-78.46308000
15.11372988,-78.46308000
15.11628988,-78.46308000
15.11884988,-78.46308000
15.12140988,-78.46308000
15.12396988,-78.46308000
15.12652988,-78.46308000
15.12908988,-78.46308000
15.13164988,-78.46308000
15.13420988,-78.46308000
15.13676988,-78.46308000
15.13932988,-78.46308000
15.14188988,-78.46308000
15.14444988,-78.46308000
15.14700988,-78.46308000
15.14956988,-78.46308000
15.15212988,-78.46308000
15.15468988,-78.46308000
15.15724988,-78.46308000
15.15980988,-78.46308000
15.16236988,-78.46308000
15.16492988,-78.46308000
15.16748988,-78.46308000
15.17004988,-78.46308000
15.17260988,-78.46308000
15.17516988,-78.46308000
15.17772988,-78.46308000
15.18028988,-78.46308000
15.18284988,-78.46308000
15.18540988,-78.46308000
15.18796988,-78.46308000
15.19052988,-78.46308000
15.19308988,-78.46308000
15.19564988,-78.46308000
15.19820988,-78.46308000
15.20076988,-78.46308000
15.20332988,-78.46308000
15.20588988,-78.46308000
15.20844988,-78.46308000
15.21100988,-78.46308000
15.21356988,-78.46308000
15.21612988,-78.46308000
15.21868988,-78.46308000
15.22124988,-78.46308000
15.22380988,-78.46308000
15.22636988,-78.46308000
15.22892988,-78.46308000
15.23148988,-78.46308000
15.23404988,-78.46308000
15.23660988,-78.46308000
15.23916988,-78.46308000
15.24172988,-78.46308000
15.24428988,-78.46308000
15.24684988,-78.46308000
15.24940988,-78.46308000
15.25196988,-78.46308000
15.25452988,-78.46308000
15.25708988,-78.46308000
15.25964988,-78.46308000
15.26220988,-78.46308000
15.26476988,-78.46308000
15.26732988,-78.46308000
15.26988988,-78.46308000
15.27244988,-78.46308000
15.27500988,-78.46308000
15.27756988,-78.46308000
15.28012988,-78.46308000
15.28268988,-78.46308000
15.28524988,-78.46308000
15.28780988,-78.46308000
15.29036988,-78.46308000
15.29292988,-78.46308000
15.29548988,-78.46308000
15.29804988,-78.46308000
15.30060988,-78.46308000
15.30316988,-78.46308000
15.30572988,-78.46308000
15.30828988,-78.46308000
15.31084988,-78.46308000
15.31340988,-78.46308000
15.31596988,-78.46308000
15.31852988,-78.46308000
15.32108988,-78.46308000
15.32364988,-78.46308000
15.32620988,-78.46308000
15.32876988,-78.46308000
15.33132988,-78.46308000
15.33388988,-78.46308000
15.33644988,-78.46308000
15.33900988,-78.46308000
15.34156988,-78.46308000
15.34412988,-78.46308000
15.34668988,-78.46308000
15.34924988,-78.46308000
15.35180988,-78.46308000
15.35436988,-78.46308000
15.35692988,-78.46308000
15.35948988,-78.46308000
15.36204988,-78.46308000
15.36460988,-78.46308000
15.36716988,-78.46308000
15.36972988,-78.46308000
15.37228988,-78.46308000
15.37484988,-78.46308000
15.37740988,-78.46308000
15.37996988,-78.46308000
15.38252988,-78.46308000
15.38508988,-78.46308000
15.38764988,-78.46308000
15.39020988,-78.46308000
15.39276988,-78.46308000
15.39532988,-78.46308000
15.39788988,-78.46308000
15.40044988,-78.46308000
15.40300988,-73.99212000
15.40556988,-78.46308000
15.40812988,-78.46308000
15.41068988,-73.99212000
15.41324988,-78.46308000
15.41580988,-78.46308000
15.41836988,-78.46308000
15.42092988,-78.46308000
15.42348988,-78.46308000
15.42604988,-78.46308000
15.42860988,-78.46308000
15.43116988,-78.46308000
15.43372988,-78.46308000
15.43628988,-78.46308000
15.43884988,-78.46308000
15.44140988,-73.99212000
15.44396988,-78.46308000
15.44652988,-78.46308000
15.44908988,-73.99212000
15.45164988,-78.46308000
15.45420988,-78.46308000
15.45676988,-73.99212000
15.45932988,-78.46308000
15.46188988,-78.46308000
15.46444988,-78.46308000
15.46700988,-78.46308000
15.46956988,-78.46308000
15.47212988,-78.46308000
15.47468988,-73.99212000
15.47724988,-78.46308000
15.47980988,-78.46308000
15.48236988,-78.46308000
15.48492988,-78.46308000
15.48748988,-78.46308000
15.49004988,-78.46308000
15.49260988,-78.46308000
15.49516988,-73.99212000
15.49772988,-78.46308000
15.50028988,-78.46308000
15.50284988,-78.46308000
15.50540988,-78.46308000
15.50796988,-78.46308000
15.51052988,-78.46308000
15.51308988,-78.46308000
15.51564988,-78.46308000
15.51820988,-78.46308000
15.52076988,-78.46308000
15.52332988,-78.46308000
15.52588988,-78.46308000
15.52844988,-78.46308000
15.53100988,-78.46308000
15.53356988,-78.46308000
15.53612988,-78.46308000
15.53868988,-78.46308000
15.54124988,-73.99212000
15.54380988,-73.99212000
15.54636988,-73.99212000
15.54892988,-78.46308000
15.55148988,-78.46308000
15.55404988,-78.46308000
15.55660988,-78.46308000
15.55916988,-78.46308000
15.56172988,-78.46308000
15.56428988,-78.46308000
15.56684988,-78.46308000
15.56940988,-78.46308000
15.57196988,-78.46308000
15.57452988,-78.46308000
15.57708988,-73.99212000
15.57964988,-78.46308000
15.58220988,-78.46308000
15.58476988,-78.46308000
15.58732988,-78.46308000
15.58988988,-78.46308000
15.59244988,-78.46308000
15.59500988,-78.46308000
15.59756988,-78.46308000
15.60012988,-78.46308000
15.60268988,-78.46308000
15.60524988,-78.46308000
15.60780988,-78.46308000
15.61036988,-78.46308000
15.61292988,-78.46308000
15.61548988,-78.46308000
15.61804988,-78.46308000
15.62060988,-78.46308000
15.62316988,-78.46308000
15.62572988,-78.46308000
15.62828988,-78.46308000
15.63084988,-78.46308000
15.63340988,-78.46308000
15.63596988,-78.46308000
15.63852988,-78.46308000
15.64108988,-78.46308000
15.64364988,-78.46308000
15.64620988,-78.46308000
15.64876988,-78.46308000
15.65132988,-78.46308000
15.65388988,-78.46308000
15.65644988,-78.46308000
15.65900988,-78.46308000
15.66156988,-78.46308000
15.66412988,-78.46308000
15.66668988,-78.46308000
15.66924988,-78.46308000
15.67180988,-78.46308000
15.67436988,-78.46308000
15.67692988,-78.46308000
15.67948988,-78.46308000
15.68204988,-78.46308000
15.68460988,-78.46308000
15.68716988,-78.46308000
15.68972988,-78.46308000
15.69228988,-78.46308000
15.69484988,-78.46308000
15.69740988,-78.46308000
15.69996988,-78.46308000
15.70252988,-78.46308000
15.70508988,-78.46308000
15.70764988,-78.46308000
15.71020988,-78.46308000
15.71276988,-78.46308000
15.71532988,-78.46308000
15.71788988,-78.46308000
15.72044988,-78.46308000
15.72300988,-78.46308000
15.72556988,-78.46308000
15.72812988,-78.46308000
15.73068988,-78.46308000
15.73324988,-78.46308000
15.73580988,-78.46308000
15.73836988,-78.46308000
15.74092988,-78.46308000
15.74348988,-78.46308000
15.74604988,-78.46308000
15.74860988,-78.46308000
15.75116988,-78.46308000
15.75372988,-78.46308000
15.75628988,-78.46308000
15.75884988,-78.46308000
15.76140988,-78.46308000
15.76396988,-73.99212000
15.76652988,-78.46308000
15.76908988,-78.46308000
15.77164988,-78.46308000
15.77420988,-78.46308000
15.77676988,-78.46308000
15.77932988,-78.46308000
15.78188988,-78.46308000
15.78444988,-78.46308000
15.78700988,-78.46308000
15.78956988,-78.46308000
15.79212988,-78.46308000
15.79468988,-78.46308000
15.79724988,-78.46308000
15.79980988,-78.46308000
15.80236988,-78.46308000
15.80492988,-78.46308000
15.80748988,-78.46308000
15.81004988,-78.46308000
15.81260988,-78.46308000
15.81516988,-78.46308000
15.81772988,-78.46308000
15.82028988,-78.46308000
15.82284988,-78.46308000
15.82540988,-78.46308000
15.82796988,-78.46308000
15.83052988,-78.46308000
15.83308988,-73.99212000
15.83564988,-78.46308000
15.83820988,-78.46308000
15.84076988,-78.46308000
15.84332988,-78.46308000
15.84588988,-78.46308000
15.84844988,-78.46308000
15.85100988,-78.46308000
15.85356988,-73.99212000
15.85612988,-78.46308000
15.85868988,-78.46308000
15.86124988,-78.46308000
15.86380988,-78.46308000
15.86636988,-78.46308000
15.86892988,-78.46308000
15.87148988,-78.46308000
15.87404988,-78.46308000
15.87660988,-78.46308000
15.87916988,-78.46308000
15.88172988,-78.46308000
15.88428988,-78.46308000
15.88684988,-78.46308000
15.88940988,-78.46308000
15.89196988,-78.46308000
15.89452988,-78.46308000
15.89708988,-73.99212000
15.89964988,-78.46308000
15.90220988,-78.46308000
15.90476988,-78.46308000
15.90732988,-78.46308000
15.90988988,-73.99212000
15.91244988,-78.46308000
15.91500988,-78.46308000
15.91756988,-78.46308000
15.92012988,-78.46308000
15.92268988,-78.46308000
15.92524988,-78.46308000
15.92780988,-78.46308000
15.93036988,-78.46308000
15.93292988,-78.46308000
15.93548988,-78.46308000
15.93804988,-78.46308000
15.94060988,-78.46308000
15.94316988,-78.46308000
15.94572988,-78.46308000
15.94828988,-78.46308000
15.95084988,-78.46308000
15.95340988,-78.46308000
15.95596988,-78.46308000
15.95852988,-78.46308000
15.96108988,-73.99212000
15.96364988,-78.46308000
15.96620988,-73.99212000
15.96876988,-78.46308000
15.97132988,-78.46308000
15.97388988,-78.46308000
15.97644988,-73.99212000
15.97900988,-78.46308000
15.98156988,-78.46308000
15.98412988,-78.46308000
15.98668988,-78.46308000
15.98924988,-78.46308000
15.99180988,-78.46308000
15.99436988,-78.46308000
15.99692988,-78.46308000
15.99948988,-78.46308000
16.00204988,-78.46308000
16.00460988,-78.46308000
16.00716988,-78.46308000
16.00972988,-78.46308000
16.01228988,-78.46308000
16.01484988,-78.46308000
16.01740988,-78.46308000
16.01996988,-78.46308000
16.02252988,-78.46308000
16.02508988,-78.46308000
16.02764988,-78.46308000
16.03020988,-78.46308000
16.03276988,-78.46308000
16.03532988,-78.46308000
16.03788988,-78.46308000
16.04044988,-78.46308000
16.04300988,-78.46308000
16.04556988,-78.46308000
16.04812988,-78.46308000
16.05068988,-78.46308000
16.05324988,-78.46308000
16.05580988,-78.46308000
16.05836988,-78.46308000
16.06092988,-78.46308000
16.06348988,-78.46308000
16.06604988,-78.46308000
16.06860988,-78.46308000
16.07116988,-78.46308000
16.07372988,-78.46308000
16.07628988,-78.46308000
16.07884988,-78.46308000
16.08140988,-78.46308000
16.08396988,-73.99212000
16.08652988,-78.46308000
16.08908988,-78.46308000
16.09164988,-78.46308000
16.09420988,-78.46308000
16.09676988,-78.46308000
16.09932988,-78.46308000
16.10188988,-78.46308000
16.10444988,-78.46308000
16.10700988,-78.46308000
16.10956988,-78.46308000
16.11212988,-78.46308000
16.11468988,-78.46308000
16.11724988,-78.46308000
16.11980988,-78.46308000
16.12236988,-78.46308000
16.12492988,-78.46308000
16.12748988,-73.99212000
16.13004988,-78.46308000
16.13260988,-78.46308000
16.13516988,-78.46308000
16.13772988,-78.46308000
16.14028988,-78.46308000
16.14284988,-78.46308000
16.14540988,-78.46308000
16.14796988,-78.46308000
16.15052988,-78.46308000
16.15308988,-78.46308000
16.15564988,-73.99212000
16.15820988,-78.46308000
16.16076988,-78.46308000
16.16332988,-78.46308000
16.16588988,-78.46308000
16.16844988,-78.46308000
16.17100988,-78.46308000
16.17356988,-78.46308000
16.17612988,-78.46308000
16.17868988,-78.46308000
16.18124988,-73.99212000
16.18380988,-78.46308000
16.18636988,-73.99212000
16.18892988,-73.99212000
16.19148988,-73.99212000
16.19404988,-78.46308000
16.19660988,-78.46308000
16.19916988,-78.46308000
16.20172988,-73.99212000
16.20428988,-78.46308000
16.20684988,-78.46308000
16.20940988,-78.46308000
16.21196988,-78.46308000
16.21452988,-78.46308000
16.21708988,-78.46308000
16.21964988,-78.46308000
16.22220988,-78.46308000
16.22476988,-78.46308000
16.22732988,-78.46308000
16.22988988,-78.46308000
16.23244988,-78.46308000
16.23500988,-78.46308000
16.23756988,-78.46308000
16.24012988,-78.46308000
16.24268988,-78.46308000
16.24524988,-78.46308000
16.24780988,-78.46308000
16.25036988,-78.46308000
16.25292988,-78.46308000
16.25548988,-78.46308000
16.25804988,-78.46308000
16.26060988,-78.46308000
16.26316988,-78.46308000
16.26572988,-78.46308000
16.26828988,-78.46308000
16.27084988,-78.46308000
16.27340988,-78.46308000
16.27596988,-78.46308000
16.27852988,-78.46308000
16.28108988,-78.46308000
16.28364988,-73.99212000
16.28620988,-78.46308000
16.28876988,-78.46308000
16.29132988,-78.46308000
16.29388988,-78.46308000
16.29644988,-73.99212000
16.29900988,-73.99212000
16.30156988,-73.99212000
16.30412988,-78.46308000
16.30668988,-78.46308000
16.30924988,-73.99212000
16.31180988,-73.99212000
16.31436988,-78.46308000
16.31692988,-73.99212000
16.31948988,-78.46308000
16.32204988,-78.46308000
16.32460988,-73.99212000
16.32716988,-78.46308000
16.32972988,-78.46308000
16.33228988,-78.46308000
16.33484988,-78.46308000
16.33740988,-73.99212000
16.33996988,-78.46308000
16.34252988,-78.46308000
16.34508988,-73.99212000
16.34764988,-78.46308000
16.35020988,-73.99212000
16.35276988,-73.99212000
16.35532988,-78.46308000
16.35788988,-78.46308000
16.36044988,-78.46308000
16.36300988,-78.46308000
16.36556988,-73.99212000
16.36812988,-73.99212000
16.37068988,-73.99212000
16.37324988,-73.99212000
16.37580988,-73.99212000
16.37836988,-78.46308000
16.38092988,-73.99212000
16.38348988,-73.99212000
16.38604988,-78.46308000
16.38860988,-78.46308000
16.39116988,-73.99212000
16.39372988,-78.46308000
16.39628988,-73.99212000
16.39884988,-78.46308000
16.40140988,-73.99212000
16.40396988,-69.50591000
16.40652988,-73.99212000
16.40908988,-73.99212000
16.41164988,-73.99212000
16.41420988,-73.99212000
16.41676988,-73.99212000
16.41932988,-73.99212000
16.42188988,-73.99212000
16.42444988,-78.46308000
16.42700988,-73.99212000
16.42956988,-73.99212000
16.43212988,-73.99212000
16.43468988,-78.46308000
16.43724988,-73.99212000
16.43980988,-73.99212000
16.44236988,-73.99212000
16.44492988,-73.99212000
16.44748988,-73.99212000
16.45004988,-73.99212000
16.45260988,-78.46308000
16.45516988,-73.99212000
16.45772988,-73.99212000
16.46028988,-69.50591000
16.46284988,-73.99212000
16.46540988,-78.46308000
16.46796988,-73.99212000
16.47052988,-73.99212000
16.47308988,-73.99212000
16.47564988,-73.99212000
16.47820988,-73.99212000
16.48076988,-73.99212000
16.48332988,-73.99212000
16.48588988,-73.99212000
16.48844988,-73.99212000
16.49100988,-73.99212000
16.49356988,-73.99212000
16.49612988,-73.99212000
16.49868988,-73.99212000
16.50124988,-73.99212000
16.50380988,-73.99212000
16.50636988,-73.99212000
16.50892988,-73.99212000
16.51148988,-73.99212000
16.51404988,-73.99212000
16.51660988,-73.99212000
16.51916988,-73.99212000
16.52172988,-73.99212000
16.52428988,-73.99212000
16.52684988,-73.99212000
16.52940988,-73.99212000
16.53196988,-73.99212000
16.53452988,-73.99212000
16.53708988,-73.99212000
16.53964988,-73.99212000
16.54220988,-73.99212000
16.54476988,-78.46308000
16.54732988,-73.99212000
16.54988988,-73.99212000
16.55244988,-73.99212000
16.55500988,-73.99212000
16.55756988,-73.99212000
16.56012988,-73.99212000
16.56268988,-73.99212000
16.56524988,-73.99212000
16.56780988,-73.99212000
16.57036988,-73.99212000
16.57292988,-73.99212000
16.57548988,-78.46308000
16.57804988,-73.99212000
16.58060988,-78.46308000
16.58316988,-73.99212000
16.58572988,-73.99212000
16.58828988,-73.99212000
16.59084988,-78.46308000
16.59340988,-73.99212000
16.59596988,-78.46308000
16.59852988,-73.99212000
16.60108988,-78.46308000
16.60364988,-73.99212000
16.60620988,-73.99212000
16.60876988,-73.99212000
16.61132988,-73.99212000
16.61388988,-73.99212000
16.61644988,-73.99212000
16.61900988,-78.46308000
16.62156988,-78.46308000
16.62412988,-78.46308000
16.62668988,-73.99212000
16.62924988,-73.99212000
16.63180988,-73.99212000
16.63436988,-78.46308000
16.63692988,-78.46308000
16.63948988,-78.46308000
16.64204988,-78.46308000
16.64460988,-78.46308000
16.64716988,-78.46308000
16.64972988,-78.46308000
16.65228988,-78.46308000
16.65484988,-78.46308000
16.65740988,-73.99212000
16.65996988,-78.46308000
16.66252988,-73.99212000
16.66508988,-78.46308000
16.66764987,-78.46308000
16.67020987,-73.99212000
16.67276987,-73.99212000
16.67532987,-78.46308000
16.67788987,-73.99212000
16.68044987,-78.46308000
16.68300987,-78.46308000
16.68556987,-78.46308000
16.68812987,-73.99212000
16.69068987,-78.46308000
16.69324987,-78.46308000
16.69580987,-78.46308000
16.69836987,-78.46308000
16.70092987,-78.46308000
16.70348987,-78.46308000
16.70604987,-78.46308000
16.70860987,-78.46308000
16.71116987,-73.99212000
16.71372987,-78.46308000
16.71628987,-78.46308000
16.71884987,-78.46308000
16.72140987,-78.46308000
16.72396987,-78.46308000
16.72652987,-78.46308000
16.72908987,-78.46308000
16.73164987,-78.46308000
16.73420987,-78.46308000
16.73676987,-78.46308000
16.73932987,-78.46308000
16.74188987,-73.99212000
16.74444987,-78.46308000
16.74700987,-78.46308000
16.74956987,-78.46308000
16.75212987,-78.46308000
16.75468987,-78.46308000
16.75724987,-78.46308000
16.75980987,-78.46308000
16.76236987,-78.46308000
16.76492987,-78.46308000
16.76748987,-78.46308000
16.77004987,-78.46308000
16.77260987,-78.46308000
16.77516987,-78.46308000
16.77772987,-78.46308000
16.78028987,-78.46308000
16.78284987,-78.46308000
16.78540987,-78.46308000
16.78796987,-78.46308000
16.79052987,-78.46308000
16.79308987,-78.46308000
16.79564987,-78.46308000
16.79820987,-78.46308000
16.80076987,-78.46308000
16.80332987,-78.46308000
16.80588987,-78.46308000
16.80844987,-78.46308000
16.81100987,-78.46308000
16.81356987,-78.46308000
16.81612987,-78.46308000
16.81868987,-78.46308000
16.82124987,-78.46308000
16.82380987,-78.46308000
16.82636987,-78.46308000
16.82892987,-78.46308000
16.83148987,-78.46308000
16.83404987,-78.46308000
16.83660987,-78.46308000
16.83916987,-78.46308000
16.84172987,-78.46308000
16.84428987,-78.46308000
16.84684987,-78.46308000
16.84940987,-78.46308000
16.85196987,-78.46308000
16.85452987,-78.46308000
16.85708987,-78.46308000
16.85964987,-78.46308000
16.86220987,-78.46308000
16.86476987,-78.46308000
16.86732987,-78.46308000
16.86988987,-78.46308000
16.87244987,-78.46308000
16.87500987,-78.46308000
16.87756987,-78.46308000
16.88012987,-78.46308000
16.88268987,-78.46308000
16.88524987,-78.46308000
16.88780987,-78.46308000
16.89036987,-78.46308000
16.89292987,-78.46308000
16.89548987,-78.46308000
16.89804987,-78.46308000
16.90060987,-78.46308000
16.90316987,-78.46308000
16.90572987,-78.46308000
16.90828987,-78.46308000
16.91084987,-78.46308000
16.91340987,-78.46308000
16.91596987,-78.46308000
16.91852987,-78.46308000
16.92108987,-78.46308000
16.92364987,-78.46308000
16.92620987,-78.46308000
16.92876987,-78.46308000
16.93132987,-78.46308000
16.93388987,-78.46308000
16.93644987,-78.46308000
16.93900987,-78.46308000
16.94156987,-78.46308000
16.94412987,-78.46308000
16.94668987,-78.46308000
16.94924987,-78.46308000
16.95180987,-78.46308000
16.95436987,-78.46308000
16.95692987,-78.46308000
16.95948987,-78.46308000
16.96204987,-78.46308000
16.96460987,-78.46308000
16.96716987,-78.46308000
16.96972987,-78.46308000
16.97228987,-78.46308000
16.97484987,-78.46308000
16.97740987,-78.46308000
16.97996987,-78.46308000
16.98252987,-78.46308000
16.98508987,-78.46308000
16.98764987,-78.46308000
16.99020987,-78.46308000
16.99276987,-78.46308000
16.99532987,-78.46308000
16.99788987,-78.46308000
17.00044987,-78.46308000
17.00300987,-78.46308000
17.00556987,-78.46308000
17.00812987,-78.46308000
17.01068987,-78.46308000
17.01324987,-78.46308000
17.01580987,-78.46308000
17.01836987,-78.46308000
17.02092987,-78.46308000
17.02348987,-78.46308000
17.02604987,-78.46308000
17.02860987,-78.46308000
17.03116987,-78.46308000
17.03372987,-78.46308000
17.03628987,-78.46308000
17.03884987,-78.46308000
17.04140987,-78.46308000
17.04396987,-78.46308000
17.04652987,-78.46308000
17.04908987,-78.46308000
17.05164987,-78.46308000
17.05420987,-78.46308000
17.05676987,-78.46308000
17.05932987,-78.46308000
17.06188987,-78.46308000
17.06444987,-78.46308000
17.06700987,-78.46308000
17.06956987,-78.46308000
17.07212987,-78.46308000
17.07468987,-78.46308000
17.07724987,-78.46308000
17.07980987,-78.46308000
17.08236987,-78.46308000
17.08492987,-78.46308000
17.08748987,-78.46308000
17.09004987,-78.46308000
17.09260987,-78.46308000
17.09516987,-78.46308000
17.09772987,-78.46308000
17.10028987,-78.46308000
17.10284987,-78.46308000
17.10540987,-78.46308000
17.10796987,-78.46308000
17.11052987,-78.46308000
17.11308987,-78.46308000
17.11564987,-78.46308000
17.11820987,-78.46308000
17.12076987,-78.46308000
17.12332987,-78.46308000
17.12588987,-78.46308000
17.12844987,-78.46308000
17.13100987,-78.46308000
17.13356987,-78.46308000
17.13612987,-78.46308000
17.13868987,-78.46308000
17.14124987,-73.99212000
17.14380987,-78.46308000
17.14636987,-78.46308000
17.14892987,-78.46308000
17.15148987,-78.46308000
17.15404987,-78.46308000
17.15660987,-78.46308000
17.15916987,-78.46308000
17.16172987,-78.46308000
17.16428987,-73.99212000
17.16684987,-78.46308000
17.16940987,-78.46308000
17.17196987,-78.46308000
17.17452987,-78.46308000
17.17708987,-78.46308000
17.17964987,-78.46308000
17.18220987,-78.46308000
17.18476987,-78.46308000
17.18732987,-78.46308000
17.18988987,-78.46308000
17.19244987,-78.46308000
17.19500987,-78.46308000
17.19756987,-73.99212000
17.20012987,-78.46308000
17.20268987,-78.46308000
17.20524987,-78.46308000
17.20780987,-73.99212000
17.21036987,-78.46308000
17.21292987,-78.46308000
17.21548987,-78.46308000
17.21804987,-78.46308000
17.22060987,-78.46308000
17.22316987,-78.46308000
17.22572987,-78.46308000
17.22828987,-78.46308000
17.23084987,-78.46308000
17.23340987,-78.46308000
17.23596987,-78.46308000
17.23852987,-78.46308000
17.24108987,-78.46308000
17.24364987,-78.46308000
17.24620987,-78.46308000
17.24876987,-78.46308000
17.25132987,-78.46308000
17.25388987,-78.46308000
17.25644987,-78.46308000
17.25900987,-78.46308000
17.26156987,-78.46308000
17.26412987,-78.46308000
17.26668987,-73.99212000
17.26924987,-73.99212000
17.27180987,-78.46308000
17.27436987,-78.46308000
17.27692987,-78.46308000
17.27948987,-78.46308000
17.28204987,-78.46308000
17.28460987,-73.99212000
17.28716987,-78.46308000
17.28972987,-78.46308000
17.29228987,-78.46308000
17.29484987,-78.46308000
17.29740987,-78.46308000
17.29996987,-78.46308000
17.30252987,-78.46308000
17.30508987,-78.46308000
17.30764987,-78.46308000
17.31020987,-78.46308000
17.31276987,-78.46308000
17.31532987,-78.46308000
17.31788987,-78.46308000
17.32044987,-78.46308000
17.32300987,-78.46308000
17.32556987,-78.46308000
17.32812987,-78.46308000
17.33068987,-78.46308000
17.33324987,-78.46308000
17.33580987,-78.46308000
17.33836987,-78.46308000
17.34092987,-78.46308000
17.34348987,-78.46308000
17.34604987,-78.46308000
17.34860987,-78.46308000
17.35116987,-78.46308000
17.35372987,-78.46308000
17.35628987,-78.46308000
17.35884987,-78.46308000
17.36140987,-78.46308000
17.36396987,-78.46308000
17.36652987,-78.46308000
17.36908987,-78.46308000
17.37164987,-78.46308000
17.37420987,-78.46308000
17.37676987,-78.46308000
17.37932987,-78.46308000
17.38188987,-78.46308000
17.38444987,-78.46308000
17.38700987,-78.46308000
17.38956987,-78.46308000
17.39212987,-78.46308000
17.39468987,-78.46308000
17.39724987,-78.46308000
17.39980987,-78.46308000
17.40236987,-78.46308000
17.40492987,-78.46308000
17.40748987,-78.46308000
17.41004987,-78.46308000
17.41260987,-78.46308000
17.41516987,-78.46308000
17.41772987,-78.46308000
17.42028987,-78.46308000
17.42284987,-78.46308000
17.42540987,-78.46308000
17.42796987,-78.46308000
17.43052987,-78.46308000
17.43308987,-78.46308000
17.43564987,-78.46308000
17.43820987,-78.46308000
17.44076987,-78.46308000
17.44332987,-78.46308000
17.44588987,-78.46308000
17.44844987,-78.46308000
17.45100987,-78.46308000
17.45356987,-78.46308000
17.45612987,-73.99212000
17.45868987,-78.46308000
17.46124987,-78.46308000
17.46380987,-78.46308000
17.46636987,-78.46308000
17.46892987,-78.46308000
17.47148987,-78.46308000
17.47404987,-78.46308000
17.47660987,-78.46308000
17.47916987,-78.46308000
17.48172987,-78.46308000
17.48428987,-78.46308000
17.48684987,-78.46308000
17.48940987,-78.46308000
17.49196987,-78.46308000
17.49452987,-78.46308000
17.49708987,-78.46308000
17.49964987,-78.46308000
17.50220987,-78.46308000
17.50476987,-78.46308000
17.50732987,-78.46308000
17.50988987,-78.46308000
17.51244987,-78.46308000
17.51500987,-78.46308000
17.51756987,-78.46308000
17.52012987,-78.46308000
17.52268987,-78.46308000
17.52524987,-78.46308000
17.52780987,-78.46308000
17.53036987,-73.99212000
17.53292987,-78.46308000
17.53548987,-78.46308000
17.53804987,-78.46308000
17.54060987,-73.99212000
17.54316987,-78.46308000
17.54572987,-78.46308000
17.54828987,-78.46308000
17.55084987,-78.46308000
17.55340987,-78.46308000
17.55596987,-73.99212000
17.55852987,-78.46308000
17.56108987,-78.46308000
17.56364987,-78.46308000
17.56620987,-78.46308000
17.56876987,-78.46308000
17.57132987,-78.46308000
17.57388987,-78.46308000
17.57644987,-73.99212000
17.57900987,-78.46308000
17.58156987,-78.46308000
17.58412987,-78.46308000
17.58668987,-78.46308000
17.58924987,-78.46308000
17.59180987,-78.46308000
17.59436987,-78.46308000
17.59692987,-73.99212000
17.59948987,-78.46308000
17.60204987,-78.46308000
17.60460987,-78.46308000
17.60716987,-78.46308000
17.60972987,-78.46308000
17.61228987,-78.46308000
17.61484987,-78.46308000
17.61740987,-73.99212000
17.61996987,-78.46308000
17.62252987,-73.99212000
17.62508987,-73.99212000
17.62764987,-73.99212000
17.63020987,-73.99212000
17.63276987,-78.46308000
17.63532987,-78.46308000
17.63788987,-78.46308000
17.64044987,-78.46308000
17.64300987,-78.46308000
17.64556987,-78.46308000
17.64812987,-78.46308000
17.65068987,-73.99212000
17.65324987,-78.46308000
17.65580987,-78.46308000
17.65836987,-78.46308000
17.66092987,-73.99212000
17.66348987,-78.46308000
17.66604987,-78.46308000
17.66860987,-78.46308000
17.67116987,-78.46308000
17.67372987,-78.46308000
17.67628987,-78.46308000
17.67884987,-78.46308000
17.68140987,-73.99212000
17.68396987,-78.46308000
17.68652987,-78.46308000
17.68908987,-78.46308000
17.69164987,-78.46308000
17.69420987,-78.46308000
17.69676987,-73.99212000
17.69932987,-78.46308000
17.70188987,-78.46308000
17.70444987,-78.46308000
17.70700987,-78.46308000
17.70956987,-78.46308000
17.71212987,-78.46308000
17.71468987,-78.46308000
17.71724987,-78.46308000
17.71980987,-78.46308000
17.72236987,-73.99212000
17.72492987,-78.46308000
17.72748987,-78.46308000
17.73004987,-78.46308000
17.73260987,-78.46308000
17.73516987,-73.99212000
17.73772987,-73.99212000
17.74028987,-78.46308000
17.74284987,-78.46308000
17.74540987,-78.46308000
17.74796987,-73.99212000
17.75052987,-78.46308000
17.75308987,-78.46308000
17.75564987,-78.46308000
17.75820987,-78.46308000
17.76076987,-78.46308000
17.76332987,-78.46308000
17.76588987,-78.46308000
17.76844987,-78.46308000
17.77100987,-73.99212000
17.77356987,-78.46308000
17.77612987,-78.46308000
17.77868987,-78.46308000
17.78124987,-78.46308000
17.78380987,-73.99212000
17.78636987,-78.46308000
17.78892987,-78.46308000
17.79148987,-78.46308000
17.79404987,-78.46308000
17.79660987,-78.46308000
17.79916987,-78.46308000
17.80172987,-73.99212000
17.80428987,-78.46308000
17.80684987,-78.46308000
17.80940987,-78.46308000
17.81196987,-78.46308000
17.81452987,-78.46308000
17.81708987,-73.99212000
17.81964987,-78.46308000
17.82220987,-73.99212000
17.82476987,-73.99212000
17.82732987,-73.99212000
17.82988987,-73.99212000
17.83244987,-73.99212000
17.83500987,-73.99212000
17.83756987,-78.46308000
17.84012987,-78.46308000
17.84268987,-78.46308000
17.84524987,-78.46308000
17.84780987,-73.99212000
17.85036987,-73.99212000
17.85292987,-78.46308000
17.85548987,-73.99212000
17.85804987,-78.46308000
17.86060987,-73.99212000
17.86316987,-73.99212000
17.86572987,-78.46308000
17.86828987,-78.46308000
17.87084987,-73.99212000
17.87340987,-78.46308000
17.87596987,-73.99212000
17.87852987,-73.99212000
17.88108987,-73.99212000
17.88364987,-78.46308000
17.88620987,-73.99212000
17.88876987,-73.99212000
17.89132987,-78.46308000
17.89388987,-78.46308000
17.89644987,-78.46308000
17.89900987,-78.46308000
17.90156987,-73.99212000
17.90412987,-73.99212000
17.90668987,-73.99212000
17.90924987,-73.99212000
17.91180987,-78.46308000
17.91436987,-73.99212000
17.91692987,-78.46308000
17.91948987,-73.99212000
17.92204987,-78.46308000
17.92460987,-73.99212000
17.92716987,-78.46308000
17.92972987,-78.46308000
17.93228987,-73.99212000
17.93484987,-73.99212000
17.93740987,-73.99212000
17.93996987,-78.46308000
17.94252987,-78.46308000
17.94508987,-78.46308000
17.94764987,-73.99212000
17.95020987,-73.99212000
17.95276987,-73.99212000
17.95532987,-73.99212000
17.95788987,-78.46308000
17.96044987,-78.46308000
17.96300987,-78.46308000
17.96556987,-78.46308000
17.96812987,-73.99212000
17.97068987,-69.50591000
17.97324987,-73.99212000
17.97580987,-78.46308000
17.97836987,-78.46308000
17.98092987,-78.46308000
17.98348987,-73.99212000
17.98604987,-78.46308000
17.98860987,-78.46308000
17.99116987,-73.99212000
17.99372987,-78.46308000
17.99628987,-73.99212000
17.99884987,-78.46308000
18.00140987,-73.99212000
18.00396987,-73.99212000
18.00652987,-73.99212000
18.00908987,-73.99212000
18.01164987,-78.46308000
18.01420987,-78.46308000
18.01676987,-78.46308000
18.01932987,-78.46308000
18.02188987,-78.46308000
18.02444987,-78.46308000
18.02700987,-78.46308000
18.02956987,-78.46308000
18.03212987,-78.46308000
18.03468987,-78.46308000
18.03724987,-78.46308000
18.03980987,-78.46308000
18.04236987,-78.46308000
18.04492987,-78.46308000
18.04748987,-78.46308000
18.05004987,-78.46308000
18.05260987,-78.46308000
18.05516987,-78.46308000
18.05772987,-78.46308000
18.06028987,-78.46308000
18.06284987,-78.46308000
18.06540987,-78.46308000
18.06796987,-78.46308000
18.07052987,-78.46308000
18.07308987,-78.46308000
18.07564987,-78.46308000
18.07820987,-78.46308000
18.08076987,-78.46308000
18.08332987,-78.46308000
18.08588987,-78.46308000
18.08844987,-78.46308000
18.09100987,-78.46308000
18.09356987,-78.46308000
18.09612987,-78.46308000
18.09868987,-78.46308000
18.10124987,-78.46308000
18.10380987,-78.46308000
18.10636987,-78.46308000
18.10892987,-78.46308000
18.11148987,-78.46308000
18.11404987,-78.46308000
18.11660987,-78.46308000
18.11916987,-78.46308000
18.12172987,-78.46308000
18.12428987,-78.46308000
18.12684987,-78.46308000
18.12940987,-78.46308000
18.13196987,-78.46308000
18.13452987,-78.46308000
18.13708987,-78.46308000
18.13964987,-78.46308000
18.14220987,-78.46308000
18.14476987,-78.46308000
18.14732987,-78.46308000
18.14988987,-78.46308000
18.15244987,-78.46308000
18.15500987,-78.46308000
18.15756987,-78.46308000
18.16012987,-78.46308000
18.16268987,-78.46308000
18.16524987,-78.46308000
18.16780987,-78.46308000
18.17036987,-78.46308000
18.17292987,-78.46308000
18.17548987,-78.46308000
18.17804987,-78.46308000
18.18060987,-78.46308000
18.18316987,-78.46308000
18.18572987,-78.46308000
18.18828987,-78.46308000
18.19084987,-78.46308000
18.19340987,-78.46308000
18.19596987,-78.46308000
18.19852987,-78.46308000
18.20108987,-78.46308000
18.20364987,-78.46308000
18.20620987,-78.46308000
18.20876987,-78.46308000
18.21132987,-78.46308000
18.21388987,-78.46308000
18.21644987,-78.46308000
18.21900987,-78.46308000
18.22156987,-78.46308000
18.22412987,-78.46308000
18.22668987,-78.46308000
18.22924987,-78.46308000
18.23180987,-78.46308000
18.23436987,-73.99212000
18.23692987,-78.46308000
18.23948987,-78.46308000
18.24204987,-78.46308000
18.24460987,-78.46308000
18.24716987,-78.46308000
18.24972987,-78.46308000
18.25228987,-78.46308000
18.25484987,-78.46308000
18.25740987,-78.46308000
18.25996987,-78.46308000
18.26252987,-78.46308000
18.26508987,-78.46308000
18.26764987,-78.46308000
18.27020987,-78.46308000
18.27276987,-78.46308000
18.27532987,-78.46308000
18.27788987,-78.46308000
18.28044987,-78.46308000
18.28300987,-78.46308000
18.28556987,-78.46308000
18.28812987,-78.46308000
18.29068987,-78.46308000
18.29324987,-78.46308000
18.29580987,-78.46308000
18.29836987,-73.99212000
18.30092987,-78.46308000
18.30348987,-78.46308000
18.30604987,-78.46308000
18.30860987,-78.46308000
18.31116987,-78.46308000
18.31372986,-78.46308000
18.31628986,-73.99212000
18.31884986,-78.46308000
18.32140986,-78.46308000
18.32396986,-78.46308000
18.32652986,-78.46308000
18.32908986,-78.46308000
18.33164986,-73.99212000
18.33420986,-78.46308000
18.33676986,-78.46308000
18.33932986,-73.99212000
18.34188986,-73.99212000
18.34444986,-78.46308000
18.34700986,-78.46308000
18.34956986,-78.46308000
18.35212986,-78.46308000
18.35468986,-78.46308000
18.35724986,-78.46308000
18.35980986,-78.46308000
18.36236986,-78.46308000
18.36492986,-78.46308000
18.36748986,-78.46308000
18.37004986,-78.46308000
18.37260986,-78.46308000
18.37516986,-78.46308000
18.37772986,-78.46308000
18.38028986,-78.46308000
18.38284986,-78.46308000
18.38540986,-78.46308000
18.38796986,-78.46308000
18.39052986,-73.99212000
18.39308986,-73.99212000
18.39564986,-73.99212000
18.39820986,-73.99212000
18.40076986,-78.46308000
18.40332986,-73.99212000
18.40588986,-78.46308000
18.40844986,-73.99212000
18.41100986,-73.99212000
18.41356986,-78.46308000
18.41612986,-78.46308000
18.41868986,-73.99212000
18.42124986,-78.46308000
18.42380986,-73.99212000
18.42636986,-78.46308000
18.42892986,-73.99212000
18.43148986,-73.99212000
18.43404986,-73.99212000
18.43660986,-78.46308000
18.43916986,-73.99212000
18.44172986,-73.99212000
18.44428986,-69.50591000
18.44684986,-69.50591000
18.44940986,-73.99212000
18.45196986,-73.99212000
18.45452986,-73.99212000
18.45708986,-69.50591000
18.45964986,-73.99212000
18.46220986,-69.50591000
18.46476986,-73.99212000
18.46732986,-69.50591000
18.46988986,-73.99212000
18.47244986,-73.99212000
18.47500986,-69.50591000
18.47756986,-73.99212000
18.48012986,-73.99212000
18.48268986,-69.50591000
18.48524986,-69.50591000
18.48780986,-73.99212000
18.49036986,-73.99212000
18.49292986,-73.99212000
18.49548986,-73.99212000
18.49804986,-73.99212000
18.50060986,-73.99212000
18.50316986,-73.99212000
18.50572986,-73.99212000
18.50828986,-69.50591000
18.51084986,-73.99212000
18.51340986,-69.50591000
18.51596986,-73.99212000
18.51852986,-73.99212000
18.52108986,-73.99212000
18.52364986,-69.50591000
18.52620986,-69.50591000
18.52876986,-69.50591000
18.53132986,-69.50591000
18.53388986,-69.50591000
18.53644986,-73.99212000
18.53900986,-73.99212000
18.54156986,-73.99212000
18.54412986,-73.99212000
18.54668986,-73.99212000
18.54924986,-73.99212000
18.55180986,-73.99212000
18.55436986,-78.46308000
18.55692986,-73.99212000
18.55948986,-73.99212000
18.56204986,-73.99212000
18.56460986,-73.99212000
18.56716986,-73.99212000
18.56972986,-73.99212000
18.57228986,-73.99212000
18.57484986,-73.99212000
18.57740986,-73.99212000
18.57996986,-73.99212000
18.58252986,-73.99212000
18.58508986,-73.99212000
18.58764986,-73.99212000
18.59020986,-73.99212000
18.59276986,-73.99212000
18.59532986,-78.46308000
18.59788986,-78.46308000
18.60044986,-73.99212000
18.60300986,-78.46308000
18.60556986,-73.99212000
18.60812986,-73.99212000
18.61068986,-73.99212000
18.61324986,-78.46308000
18.61580986,-73.99212000
18.61836986,-73.99212000
18.62092986,-73.99212000
18.62348986,-78.46308000
18.62604986,-78.46308000
18.62860986,-78.46308000
18.63116986,-78.46308000
18.63372986,-78.46308000
18.63628986,-78.46308000
18.63884986,-78.46308000
18.64140986,-78.46308000
18.64396986,-78.46308000
18.64652986,-73.99212000
18.64908986,-78.46308000
18.65164986,-78.46308000
18.65420986,-78.46308000
18.65676986,-78.46308000
18.65932986,-78.46308000
18.66188986,-78.46308000
18.66444986,-78.46308000
18.66700986,-78.46308000
18.66956986,-78.46308000
18.67212986,-78.46308000
18.67468986,-78.46308000
18.67724986,-78.46308000
18.67980986,-78.46308000
