Time,Invert B
(ms),(mV)

-1.32136396,-73.99212000
-1.31880396,-73.99212000
-1.31624396,-73.99212000
-1.31368396,-73.99212000
-1.31112396,-73.99212000
-1.30856396,-73.99212000
-1.30600396,-73.99212000
-1.30344396,-73.99212000
-1.30088396,-73.99212000
-1.29832396,-73.99212000
-1.29576396,-73.99212000
-1.29320396,-78.46308000
-1.29064396,-73.99212000
-1.28808396,-73.99212000
-1.28552396,-73.99212000
-1.28296396,-73.99212000
-1.28040396,-78.46308000
-1.27784396,-73.99212000
-1.27528396,-73.99212000
-1.27272396,-73.99212000
-1.27016396,-73.99212000
-1.26760396,-73.99212000
-1.26504396,-73.99212000
-1.26248396,-73.99212000
-1.25992396,-78.46308000
-1.25736396,-73.99212000
-1.25480396,-73.99212000
-1.25224396,-73.99212000
-1.24968396,-73.99212000
-1.24712396,-73.99212000
-1.24456396,-78.46308000
-1.24200396,-73.99212000
-1.23944396,-78.46308000
-1.23688396,-78.46308000
-1.23432396,-73.99212000
-1.23176396,-73.99212000
-1.22920396,-78.46308000
-1.22664396,-78.46308000
-1.22408396,-78.46308000
-1.22152396,-78.46308000
-1.21896396,-78.46308000
-1.21640396,-78.46308000
-1.21384396,-73.99212000
-1.21128396,-73.99212000
-1.20872396,-73.99212000
-1.20616396,-73.99212000
-1.20360396,-73.99212000
-1.20104396,-73.99212000
-1.19848396,-78.46308000
-1.19592396,-78.46308000
-1.19336396,-78.46308000
-1.19080396,-78.46308000
-1.18824396,-73.99212000
-1.18568396,-73.99212000
-1.18312396,-78.46308000
-1.18056396,-73.99212000
-1.17800396,-73.99212000
-1.17544396,-73.99212000
-1.17288396,-73.99212000
-1.17032396,-73.99212000
-1.16776396,-73.99212000
-1.16520396,-73.99212000
-1.16264396,-73.99212000
-1.16008396,-78.46308000
-1.15752396,-73.99212000
-1.15496396,-73.99212000
-1.15240396,-73.99212000
-1.14984396,-73.99212000
-1.14728396,-78.46308000
-1.14472396,-73.99212000
-1.14216396,-73.99212000
-1.13960396,-73.99212000
-1.13704396,-73.99212000
-1.13448396,-73.99212000
-1.13192396,-78.46308000
-1.12936396,-73.99212000
-1.12680396,-73.99212000
-1.12424396,-73.99212000
-1.12168396,-78.46308000
-1.11912396,-73.99212000
-1.11656396,-73.99212000
-1.11400396,-78.46308000
-1.11144396,-78.46308000
-1.10888396,-73.99212000
-1.10632396,-78.46308000
-1.10376396,-73.99212000
-1.10120396,-73.99212000
-1.09864396,-78.46308000
-1.09608396,-73.99212000
-1.09352396,-73.99212000
-1.09096396,-78.46308000
-1.08840396,-78.46308000
-1.08584396,-73.99212000
-1.08328396,-73.99212000
-1.08072396,-73.99212000
-1.07816396,-73.99212000
-1.07560396,-78.46308000
-1.07304396,-73.99212000
-1.07048396,-73.99212000
-1.06792396,-73.99212000
-1.06536396,-73.99212000
-1.06280396,-73.99212000
-1.06024396,-78.46308000
-1.05768396,-78.46308000
-1.05512396,-73.99212000
-1.05256396,-73.99212000
-1.05000396,-73.99212000
-1.04744396,-73.99212000
-1.04488396,-78.46308000
-1.04232396,-73.99212000
-1.03976396,-78.46308000
-1.03720396,-78.46308000
-1.03464396,-73.99212000
-1.03208396,-73.99212000
-1.02952396,-73.99212000
-1.02696396,-78.46308000
-1.02440396,-78.46308000
-1.02184396,-78.46308000
-1.01928396,-78.46308000
-1.01672396,-73.99212000
-1.01416396,-78.46308000
-1.01160396,-78.46308000
-1.00904396,-73.99212000
-1.00648396,-73.99212000
-1.00392396,-73.99212000
-1.00136396,-73.99212000
-0.99880396,-73.99212000
-0.99624396,-73.99212000
-0.99368396,-73.99212000
-0.99112396,-73.99212000
-0.98856396,-78.46308000
-0.98600396,-78.46308000
-0.98344396,-73.99212000
-0.98088396,-73.99212000
-0.97832396,-73.99212000
-0.97576396,-73.99212000
-0.97320396,-78.46308000
-0.97064396,-73.99212000
-0.96808396,-78.46308000
-0.96552396,-78.46308000
-0.96296396,-73.99212000
-0.96040396,-73.99212000
-0.95784396,-73.99212000
-0.95528396,-78.46308000
-0.95272396,-78.46308000
-0.95016396,-78.46308000
-0.94760396,-73.99212000
-0.94504396,-73.99212000
-0.94248396,-73.99212000
-0.93992396,-73.99212000
-0.93736396,-78.46308000
-0.93480396,-73.99212000
-0.93224396,-78.46308000
-0.92968396,-73.99212000
-0.92712396,-73.99212000
-0.92456396,-73.99212000
-0.92200396,-73.99212000
-0.91944396,-78.46308000
-0.91688396,-73.99212000
-0.91432396,-78.46308000
-0.91176396,-73.99212000
-0.90920396,-73.99212000
-0.90664396,-73.99212000
-0.90408396,-78.46308000
-0.90152396,-73.99212000
-0.89896396,-73.99212000
-0.89640396,-73.99212000
-0.89384396,-73.99212000
-0.89128396,-73.99212000
-0.88872396,-73.99212000
-0.88616396,-73.99212000
-0.88360396,-73.99212000
-0.88104396,-73.99212000
-0.87848396,-73.99212000
-0.87592396,-73.99212000
-0.87336396,-73.99212000
-0.87080396,-73.99212000
-0.86824396,-73.99212000
-0.86568396,-73.99212000
-0.86312396,-73.99212000
-0.86056396,-73.99212000
-0.85800396,-73.99212000
-0.85544396,-73.99212000
-0.85288396,-73.99212000
-0.85032396,-73.99212000
-0.84776396,-73.99212000
-0.84520396,-73.99212000
-0.84264396,-73.99212000
-0.84008396,-73.99212000
-0.83752396,-73.99212000
-0.83496396,-73.99212000
-0.83240396,-73.99212000
-0.82984396,-73.99212000
-0.82728396,-73.99212000
-0.82472396,-73.99212000
-0.82216396,-73.99212000
-0.81960396,-73.99212000
-0.81704396,-73.99212000
-0.81448396,-73.99212000
-0.81192396,-73.99212000
-0.80936396,-78.46308000
-0.80680396,-60.56398000
-0.80424396,-87.40501000
-0.80168396,-114.23080000
-0.79912396,-132.12990000
-0.79656396,-145.54280000
-0.79400396,-158.95570000
-0.79144396,-167.89760000
-0.78888396,-172.36850000
-0.78632396,-176.83950000
-0.78376396,-185.78140000
-0.78120396,-194.73860000
-0.77864396,-194.73860000
-0.77608396,-203.68050000
-0.77352396,-208.15150000
-0.77096396,-212.62240000
-0.76840396,-212.62240000
-0.76584396,-221.56440000
-0.76328396,-221.56440000
-0.76072396,-226.03530000
-0.75816396,-230.50630000
-0.75560396,-230.50630000
-0.75304396,-234.97720000
-0.75048396,-234.97720000
-0.74792396,-239.44820000
-0.74536396,-239.44820000
-0.74280396,-239.44820000
-0.74024396,-239.44820000
-0.73768396,-243.91920000
-0.73512396,-243.91920000
-0.73256396,-239.44820000
-0.73000396,-243.91920000
-0.72744396,-243.91920000
-0.72488396,-243.91920000
-0.72232396,-243.91920000
-0.71976396,-239.44820000
-0.71720396,-239.44820000
-0.71464397,-239.44820000
-0.71208397,-239.44820000
-0.70952397,-234.97720000
-0.70696397,-234.97720000
-0.70440397,-234.97720000
-0.70184397,-230.50630000
-0.69928397,-230.50630000
-0.69672397,-226.03530000
-0.69416397,-226.03530000
-0.69160397,-221.56440000
-0.68904397,-221.56440000
-0.68648397,-217.09340000
-0.68392397,-217.09340000
-0.68136397,-212.62240000
-0.67880397,-208.15150000
-0.67624397,-208.15150000
-0.67368397,-203.68050000
-0.67112397,-203.68050000
-0.66856397,-199.20960000
-0.66600397,-199.20960000
-0.66344397,-194.73860000
-0.66088397,-190.26760000
-0.65832397,-190.26760000
-0.65576397,-185.78140000
-0.65320397,-181.31050000
-0.65064397,-176.83950000
-0.64808397,-176.83950000
-0.64552397,-172.36850000
-0.64296397,-167.89760000
-0.64040397,-167.89760000
-0.63784397,-163.42660000
-0.63528397,-158.95570000
-0.63272397,-158.95570000
-0.63016397,-154.48470000
-0.62760397,-150.01370000
-0.62504397,-150.01370000
-0.62248397,-145.54280000
-0.61992397,-141.07180000
-0.61736397,-141.07180000
-0.61480397,-136.60080000
-0.61224397,-132.12990000
-0.60968397,-132.12990000
-0.60712397,-132.12990000
-0.60456397,-123.17270000
-0.60200397,-123.17270000
-0.59944397,-118.70170000
-0.59688397,-118.70170000
-0.59432397,-114.23080000
-0.59176397,-109.75980000
-0.58920397,-105.28880000
-0.58664397,-105.28880000
-0.58408397,-105.28880000
-0.58152397,-100.81790000
-0.57896397,-96.34693000
-0.57640397,-96.34693000
-0.57384397,-96.34693000
-0.57128397,-87.40501000
-0.56872397,-87.40501000
-0.56616397,-87.40501000
-0.56360397,-82.93404000
-0.56104397,-82.93404000
-0.55848397,-78.46308000
-0.55592397,-78.46308000
-0.55336397,-73.99212000
-0.55080397,-73.99212000
-0.54824397,-69.50591000
-0.54568397,-69.50591000
-0.54312397,-69.50591000
-0.54056397,-65.03493000
-0.53800397,-65.03493000
-0.53544397,-60.56398000
-0.53288397,-60.56398000
-0.53032397,-56.09302000
-0.52776397,-56.09302000
-0.52520397,-51.62206000
-0.52264397,-51.62206000
-0.52008397,-51.62206000
-0.51752397,-47.15109000
-0.51496397,-47.15109000
-0.51240397,-42.68013000
-0.50984397,-42.68013000
-0.50728397,-42.68013000
-0.50472397,-42.68013000
-0.50216397,-38.20917000
-0.49960397,-33.73821000
-0.49704397,-33.73821000
-0.49448397,-33.73821000
-0.49192397,-33.73821000
-0.48936397,-33.73821000
-0.48680397,-33.73821000
-0.48424397,-29.26725000
-0.48168397,-29.26725000
-0.47912397,-24.79629000
-0.47656397,-24.79629000
-0.47400397,-24.79629000
-0.47144397,-24.79629000
-0.46888397,-24.79629000
-0.46632397,-20.32533000
-0.46376397,-20.32533000
-0.46120397,-20.32533000
-0.45864397,-20.32533000
-0.45608397,-15.85437000
-0.45352397,-15.85437000
-0.45096397,-15.85437000
-0.44840397,-15.85437000
-0.44584397,-15.85437000
-0.44328397,-15.85437000
-0.44072397,-15.85437000
-0.43816397,-15.85437000
-0.43560397,-15.85437000
-0.43304397,-15.85437000
-0.43048397,-11.38340000
-0.42792397,-15.85437000
-0.42536397,-11.38340000
-0.42280397,-11.38340000
-0.42024397,-11.38340000
-0.41768397,-11.38340000
-0.41512397,-11.38340000
-0.41256397,-11.38340000
-0.41000397,-11.38340000
-0.40744397,-11.38340000
-0.40488397,-11.38340000
-0.40232397,-11.38340000
-0.39976397,-11.38340000
-0.39720397,-6.91244200
-0.39464397,-6.91244200
-0.39208397,-6.91244200
-0.38952397,-6.91244200
-0.38696397,-6.91244200
-0.38440397,-6.91244200
-0.38184397,-6.91244200
-0.37928397,-6.91244200
-0.37672397,-6.91244200
-0.37416397,-6.91244200
-0.37160397,-6.91244200
-0.36904397,-11.38340000
-0.36648397,-6.91244200
-0.36392397,-6.91244200
-0.36136397,-6.91244200
-0.35880397,-6.91244200
-0.35624397,-6.91244200
-0.35368397,-6.91244200
-0.35112397,-6.91244200
-0.34856397,-6.91244200
-0.34600397,-6.91244200
-0.34344397,-6.91244200
-0.34088397,-6.91244200
-0.33832397,-6.91244200
-0.33576397,-11.38340000
-0.33320397,-11.38340000
-0.33064397,-11.38340000
-0.32808397,-11.38340000
-0.32552397,-11.38340000
-0.32296397,-11.38340000
-0.32040397,-11.38340000
-0.31784397,-11.38340000
-0.31528397,-11.38340000
-0.31272397,-15.85437000
-0.31016397,-11.38340000
-0.30760397,-11.38340000
-0.30504397,-15.85437000
-0.30248397,-11.38340000
-0.29992397,-11.38340000
-0.29736397,-11.38340000
-0.29480397,-15.85437000
-0.29224397,-15.85437000
-0.28968397,2.02948100
-0.28712397,73.58012000
-0.28456397,171.97180000
-0.28200397,247.99340000
-0.27944397,306.13110000
-0.27688397,341.91410000
-0.27432397,377.68180000
-0.27176397,400.05190000
-0.26920397,422.40670000
-0.26664397,440.29050000
-0.26408397,458.18960000
-0.26152397,471.60250000
-0.25896397,485.01540000
-0.25640397,Infinity
-0.25384397,Infinity
-0.25128397,Infinity
-0.24872397,Infinity
-0.24616397,Infinity
-0.24360397,Infinity
-0.24104397,Infinity
-0.23848397,Infinity
-0.23592397,Infinity
-0.23336397,Infinity
-0.23080397,Infinity
-0.22824397,Infinity
-0.22568397,Infinity
-0.22312397,Infinity
-0.22056397,Infinity
-0.21800397,Infinity
-0.21544397,Infinity
-0.21288397,Infinity
-0.21032397,Infinity
-0.20776397,Infinity
-0.20520397,Infinity
-0.20264397,Infinity
-0.20008397,Infinity
-0.19752397,Infinity
-0.19496397,Infinity
-0.19240397,Infinity
-0.18984397,Infinity
-0.18728397,Infinity
-0.18472397,Infinity
-0.18216397,Infinity
-0.17960397,Infinity
-0.17704397,Infinity
-0.17448397,Infinity
-0.17192397,Infinity
-0.16936397,Infinity
-0.16680397,Infinity
-0.16424397,Infinity
-0.16168397,Infinity
-0.15912397,Infinity
-0.15656397,Infinity
-0.15400397,Infinity
-0.15144397,493.95730000
-0.14888397,485.01540000
-0.14632397,476.07350000
-0.14376397,467.13150000
-0.14120397,458.18960000
-0.13864397,449.24770000
-0.13608397,440.29050000
-0.13352397,431.34860000
-0.13096397,422.40670000
-0.12840397,413.46470000
-0.12584397,404.52280000
-0.12328397,395.58090000
-0.12072397,386.63900000
-0.11816397,373.21080000
-0.11560397,364.26890000
-0.11304397,355.32700000
-0.11048397,346.38510000
-0.10792397,332.97220000
-0.10536397,324.01500000
-0.10280397,315.07310000
-0.10024397,306.13110000
-0.09768397,297.18920000
-0.09512397,288.24730000
-0.09256397,279.30540000
-0.09000397,270.36350000
-0.08744397,261.40630000
-0.08488397,252.46440000
-0.08232397,243.52240000
-0.07976397,234.58050000
-0.07720397,221.16760000
-0.07464397,212.21040000
-0.07208397,203.26850000
-0.06952397,198.79760000
-0.06696397,189.85560000
-0.06440397,180.91370000
-0.06184397,171.97180000
-0.05928397,163.02990000
-0.05672397,154.07270000
-0.05416397,145.13080000
-0.05160397,136.18880000
-0.04904397,131.71790000
-0.04648397,118.30500000
-0.04392397,113.83400000
-0.04136397,104.89210000
-0.03880397,100.42120000
-0.03624397,91.46397000
-0.03368397,82.52204000
-0.03112397,73.58012000
-0.02856397,69.10916000
-0.02600397,60.16724000
-0.02344397,55.69627000
-0.02088397,46.75435000
-0.01832397,37.79717000
-0.01576397,33.32621000
-0.01320397,24.38429000
-0.01064397,19.91333000
-0.00808397,10.97140000
-0.00552397,6.50044200
-0.00296397,2.02948100
-0.00040397,-6.91244200
0.00215603,-15.85437000
0.00471603,-15.85437000
0.00727603,-24.79629000
0.00983603,-29.26725000
0.01239603,-33.73821000
0.01495603,-42.68013000
0.01751603,-47.15109000
0.02007603,-51.62206000
0.02263603,-60.56398000
0.02519603,-65.03493000
0.02775603,-69.50591000
0.03031603,-73.99212000
0.03287603,-78.46308000
0.03543603,-82.93404000
0.03799603,-87.40501000
0.04055603,-96.34693000
0.04311603,-96.34693000
0.04567603,-105.28880000
0.04823603,-105.28880000
0.05079603,-114.23080000
0.05335603,-114.23080000
0.05591603,-118.70170000
0.05847603,-123.17270000
0.06103603,-123.17270000
0.06359603,-132.12990000
0.06615603,-136.60080000
0.06871603,-141.07180000
0.07127603,-141.07180000
0.07383603,-145.54280000
0.07639603,-150.01370000
0.07895603,-154.48470000
0.08151603,-158.95570000
0.08407603,-158.95570000
0.08663603,-163.42660000
0.08919603,-167.89760000
0.09175603,-167.89760000
0.09431603,-172.36850000
0.09687603,-176.83950000
0.09943603,-176.83950000
0.10199603,-181.31050000
0.10455603,-185.78140000
0.10711603,-185.78140000
0.10967603,-190.26760000
0.11223603,-194.73860000
0.11479603,-194.73860000
0.11735603,-194.73860000
0.11991603,-194.73860000
0.12247603,-203.68050000
0.12503603,-203.68050000
0.12759603,-203.68050000
0.13015603,-208.15150000
0.13271603,-212.62240000
0.13527603,-212.62240000
0.13783603,-212.62240000
0.14039603,-212.62240000
0.14295603,-217.09340000
0.14551603,-221.56440000
0.14807603,-221.56440000
0.15063603,-221.56440000
0.15319603,-226.03530000
0.15575603,-226.03530000
0.15831603,-226.03530000
0.16087603,-230.50630000
0.16343603,-230.50630000
0.16599603,-230.50630000
0.16855603,-230.50630000
0.17111603,-234.97720000
0.17367603,-234.97720000
0.17623603,-239.44820000
0.17879603,-239.44820000
0.18135603,-239.44820000
0.18391603,-239.44820000
0.18647603,-239.44820000
0.18903603,-239.44820000
0.19159603,-243.91920000
0.19415603,-243.91920000
0.19671603,-243.91920000
0.19927603,-243.91920000
0.20183603,-248.40540000
0.20439603,-248.40540000
0.20695603,-248.40540000
0.20951603,-248.40540000
0.21207603,-248.40540000
0.21463603,-248.40540000
0.21719603,-248.40540000
0.21975603,-248.40540000
0.22231603,-248.40540000
0.22487603,-248.40540000
0.22743603,-248.40540000
0.22999603,-248.40540000
0.23255603,-252.87640000
0.23511603,-248.40540000
0.23767603,-252.87640000
0.24023603,-252.87640000
0.24279603,-257.34730000
0.24535603,-257.34730000
0.24791603,-252.87640000
0.25047603,-257.34730000
0.25303603,-257.34730000
0.25559603,-252.87640000
0.25815603,-257.34730000
0.26071603,-257.34730000
0.26327603,-257.34730000
0.26583603,-257.34730000
0.26839603,-257.34730000
0.27095603,-257.34730000
0.27351603,-257.34730000
0.27607603,-257.34730000
0.27863603,-257.34730000
0.28119603,-257.34730000
0.28375603,-257.34730000
0.28631603,-257.34730000
0.28887603,-257.34730000
0.29143603,-252.87640000
0.29399603,-257.34730000
0.29655603,-257.34730000
0.29911603,-257.34730000
0.30167603,-252.87640000
0.30423603,-257.34730000
0.30679603,-257.34730000
0.30935603,-257.34730000
0.31191603,-252.87640000
0.31447603,-252.87640000
0.31703603,-252.87640000
0.31959603,-252.87640000
0.32215603,-252.87640000
0.32471603,-252.87640000
0.32727603,-248.40540000
0.32983603,-252.87640000
0.33239603,-252.87640000
0.33495603,-252.87640000
0.33751603,-248.40540000
0.34007603,-248.40540000
0.34263603,-248.40540000
0.34519603,-248.40540000
0.34775603,-248.40540000
0.35031603,-248.40540000
0.35287603,-248.40540000
0.35543603,-248.40540000
0.35799603,-248.40540000
0.36055603,-248.40540000
0.36311603,-248.40540000
0.36567603,-248.40540000
0.36823603,-248.40540000
0.37079603,-243.91920000
0.37335603,-248.40540000
0.37591603,-248.40540000
0.37847603,-243.91920000
0.38103603,-243.91920000
0.38359603,-243.91920000
0.38615603,-243.91920000
0.38871603,-243.91920000
0.39127603,-239.44820000
0.39383603,-239.44820000
0.39639603,-239.44820000
0.39895603,-239.44820000
0.40151603,-239.44820000
0.40407603,-239.44820000
0.40663603,-239.44820000
0.40919603,-239.44820000
0.41175603,-239.44820000
0.41431603,-234.97720000
0.41687603,-234.97720000
0.41943603,-234.97720000
0.42199603,-234.97720000
0.42455603,-234.97720000
0.42711603,-230.50630000
0.42967603,-230.50630000
0.43223603,-230.50630000
0.43479603,-230.50630000
0.43735603,-230.50630000
0.43991603,-230.50630000
0.44247603,-230.50630000
0.44503603,-230.50630000
0.44759603,-230.50630000
0.45015603,-230.50630000
0.45271603,-226.03530000
0.45527603,-226.03530000
0.45783603,-226.03530000
0.46039603,-226.03530000
0.46295603,-226.03530000
0.46551603,-226.03530000
0.46807603,-226.03530000
0.47063603,-226.03530000
0.47319603,-221.56440000
0.47575603,-221.56440000
0.47831603,-221.56440000
0.48087603,-221.56440000
0.48343603,-221.56440000
0.48599603,-221.56440000
0.48855603,-217.09340000
0.49111603,-217.09340000
0.49367603,-212.62240000
0.49623603,-217.09340000
0.49879603,-212.62240000
0.50135603,-212.62240000
0.50391603,-212.62240000
0.50647603,-212.62240000
0.50903603,-212.62240000
0.51159603,-212.62240000
0.51415603,-212.62240000
0.51671603,-212.62240000
0.51927603,-208.15150000
0.52183603,-212.62240000
0.52439603,-208.15150000
0.52695603,-208.15150000
0.52951603,-208.15150000
0.53207603,-203.68050000
0.53463603,-203.68050000
0.53719603,-203.68050000
0.53975603,-203.68050000
0.54231603,-203.68050000
0.54487603,-203.68050000
0.54743603,-203.68050000
0.54999603,-203.68050000
0.55255603,-199.20960000
0.55511603,-203.68050000
0.55767603,-199.20960000
0.56023603,-199.20960000
0.56279603,-194.73860000
0.56535603,-194.73860000
0.56791603,-194.73860000
0.57047603,-194.73860000
0.57303603,-194.73860000
0.57559603,-194.73860000
0.57815603,-194.73860000
0.58071603,-194.73860000
0.58327603,-194.73860000
0.58583603,-194.73860000
0.58839603,-194.73860000
0.59095603,-190.26760000
0.59351603,-194.73860000
0.59607603,-190.26760000
0.59863603,-185.78140000
0.60119603,-190.26760000
0.60375603,-190.26760000
0.60631603,-190.26760000
0.60887603,-185.78140000
0.61143603,-185.78140000
0.61399603,-185.78140000
0.61655603,-185.78140000
0.61911603,-185.78140000
0.62167603,-185.78140000
0.62423603,-185.78140000
0.62679603,-185.78140000
0.62935603,-185.78140000
0.63191603,-181.31050000
0.63447603,-181.31050000
0.63703603,-181.31050000
0.63959603,-176.83950000
0.64215603,-176.83950000
0.64471603,-176.83950000
0.64727603,-176.83950000
0.64983603,-176.83950000
0.65239603,-176.83950000
0.65495603,-176.83950000
0.65751603,-176.83950000
0.66007603,-176.83950000
0.66263603,-172.36850000
0.66519603,-176.83950000
0.66775603,-172.36850000
0.67031603,-172.36850000
0.67287603,-172.36850000
0.67543603,-172.36850000
0.67799603,-172.36850000
0.68055603,-172.36850000
0.68311603,-167.89760000
0.68567603,-172.36850000
0.68823603,-167.89760000
0.69079603,-172.36850000
0.69335603,-167.89760000
0.69591603,-167.89760000
0.69847603,-167.89760000
0.70103603,-167.89760000
0.70359603,-167.89760000
0.70615603,-167.89760000
0.70871603,-163.42660000
0.71127603,-163.42660000
0.71383603,-163.42660000
0.71639603,-163.42660000
0.71895603,-158.95570000
0.72151603,-158.95570000
0.72407603,-158.95570000
0.72663603,-158.95570000
0.72919603,-158.95570000
0.73175603,-158.95570000
0.73431603,-158.95570000
0.73687603,-158.95570000
0.73943603,-158.95570000
0.74199603,-158.95570000
0.74455603,-158.95570000
0.74711603,-158.95570000
0.74967603,-158.95570000
0.75223603,-154.48470000
0.75479603,-154.48470000
0.75735603,-154.48470000
0.75991603,-154.48470000
0.76247603,-154.48470000
0.76503603,-154.48470000
0.76759603,-154.48470000
0.77015603,-154.48470000
0.77271603,-150.01370000
0.77527603,-150.01370000
0.77783603,-150.01370000
0.78039603,-150.01370000
0.78295603,-150.01370000
0.78551603,-150.01370000
0.78807603,-150.01370000
0.79063603,-150.01370000
0.79319603,-150.01370000
0.79575603,-150.01370000
0.79831603,-150.01370000
0.80087603,-150.01370000
0.80343603,-145.54280000
0.80599603,-145.54280000
0.80855603,-145.54280000
0.81111603,-145.54280000
0.81367603,-141.07180000
0.81623603,-141.07180000
0.81879603,-141.07180000
0.82135603,-141.07180000
0.82391603,-141.07180000
0.82647603,-141.07180000
0.82903603,-141.07180000
0.83159603,-141.07180000
0.83415603,-141.07180000
0.83671603,-141.07180000
0.83927603,-141.07180000
0.84183603,-141.07180000
0.84439603,-141.07180000
0.84695603,-136.60080000
0.84951603,-141.07180000
0.85207603,-136.60080000
0.85463603,-136.60080000
0.85719603,-136.60080000
0.85975603,-136.60080000
0.86231603,-136.60080000
0.86487603,-136.60080000
0.86743603,-136.60080000
0.86999603,-136.60080000
0.87255603,-136.60080000
0.87511603,-132.12990000
0.87767603,-132.12990000
0.88023603,-132.12990000
0.88279603,-132.12990000
0.88535603,-132.12990000
0.88791603,-132.12990000
0.89047603,-132.12990000
0.89303603,-132.12990000
0.89559603,-132.12990000
0.89815603,-132.12990000
0.90071603,-132.12990000
0.90327603,-132.12990000
0.90583603,-127.64370000
0.90839603,-127.64370000
0.91095603,-132.12990000
0.91351603,-127.64370000
0.91607603,-123.17270000
0.91863603,-127.64370000
0.92119603,-127.64370000
0.92375603,-127.64370000
0.92631603,-127.64370000
0.92887603,-123.17270000
0.93143602,-123.17270000
0.93399602,-123.17270000
0.93655602,-123.17270000
0.93911602,-123.17270000
0.94167602,-123.17270000
0.94423602,-123.17270000
0.94679602,-123.17270000
0.94935602,-123.17270000
0.95191602,-123.17270000
0.95447602,-123.17270000
0.95703602,-123.17270000
0.95959602,-123.17270000
0.96215602,-123.17270000
0.96471602,-123.17270000
0.96727602,-123.17270000
0.96983602,-123.17270000
0.97239602,-123.17270000
0.97495602,-118.70170000
0.97751602,-118.70170000
0.98007602,-118.70170000
0.98263602,-123.17270000
0.98519602,-118.70170000
0.98775602,-118.70170000
0.99031602,-118.70170000
0.99287602,-118.70170000
0.99543602,-118.70170000
0.99799602,-118.70170000
1.00055602,-118.70170000
1.00311602,-114.23080000
1.00567602,-118.70170000
1.00823602,-114.23080000
1.01079602,-114.23080000
1.01335602,-118.70170000
1.01591602,-114.23080000
1.01847602,-114.23080000
1.02103602,-114.23080000
1.02359602,-114.23080000
1.02615602,-114.23080000
1.02871602,-114.23080000
1.03127602,-114.23080000
1.03383602,-114.23080000
1.03639602,-114.23080000
1.03895602,-114.23080000
1.04151602,-114.23080000
1.04407602,-114.23080000
1.04663602,-114.23080000
1.04919602,-114.23080000
1.05175602,-114.23080000
1.05431602,-114.23080000
1.05687602,-114.23080000
1.05943602,-114.23080000
1.06199602,-109.75980000
1.06455602,-109.75980000
1.06711602,-109.75980000
1.06967602,-109.75980000
1.07223602,-109.75980000
1.07479602,-109.75980000
1.07735602,-109.75980000
1.07991602,-109.75980000
1.08247602,-109.75980000
1.08503602,-109.75980000
1.08759602,-105.28880000
1.09015602,-105.28880000
1.09271602,-105.28880000
1.09527602,-105.28880000
1.09783602,-105.28880000
1.10039602,-105.28880000
1.10295602,-105.28880000
1.10551602,-105.28880000
1.10807602,-105.28880000
1.11063602,-105.28880000
1.11319602,-105.28880000
1.11575602,-105.28880000
1.11831602,-105.28880000
1.12087602,-105.28880000
1.12343602,-105.28880000
1.12599602,-105.28880000
1.12855602,-105.28880000
1.13111602,-105.28880000
1.13367602,-105.28880000
1.13623602,-100.81790000
1.13879602,-105.28880000
1.14135602,-105.28880000
1.14391602,-100.81790000
1.14647602,-100.81790000
1.14903602,-100.81790000
1.15159602,-100.81790000
1.15415602,-100.81790000
1.15671602,-100.81790000
1.15927602,-100.81790000
1.16183602,-100.81790000
1.16439602,-100.81790000
1.16695602,-100.81790000
1.16951602,-100.81790000
1.17207602,-100.81790000
1.17463602,-100.81790000
1.17719602,-96.34693000
1.17975602,-96.34693000
1.18231602,-96.34693000
1.18487602,-96.34693000
1.18743602,-96.34693000
1.18999602,-100.81790000
1.19255602,-100.81790000
1.19511602,-96.34693000
1.19767602,-96.34693000
1.20023602,-96.34693000
1.20279602,-96.34693000
1.20535602,-96.34693000
1.20791602,-96.34693000
1.21047602,-96.34693000
1.21303602,-96.34693000
1.21559602,-96.34693000
1.21815602,-96.34693000
1.22071602,-96.34693000
1.22327602,-96.34693000
1.22583602,-96.34693000
1.22839602,-96.34693000
1.23095602,-96.34693000
1.23351602,-96.34693000
1.23607602,-96.34693000
1.23863602,-96.34693000
1.24119602,-96.34693000
1.24375602,-96.34693000
1.24631602,-96.34693000
1.24887602,-96.34693000
1.25143602,-96.34693000
1.25399602,-91.87596000
1.25655602,-96.34693000
1.25911602,-96.34693000
1.26167602,-91.87596000
1.26423602,-96.34693000
1.26679602,-91.87596000
1.26935602,-96.34693000
1.27191602,-91.87596000
1.27447602,-91.87596000
1.27703602,-91.87596000
1.27959602,-91.87596000
1.28215602,-87.40501000
1.28471602,-87.40501000
1.28727602,-91.87596000
1.28983602,-91.87596000
1.29239602,-87.40501000
1.29495602,-91.87596000
1.29751602,-87.40501000
1.30007602,-91.87596000
1.30263602,-87.40501000
1.30519602,-91.87596000
1.30775602,-87.40501000
1.31031602,-87.40501000
1.31287602,-87.40501000
1.31543602,-87.40501000
1.31799602,-87.40501000
1.32055602,-87.40501000
1.32311602,-87.40501000
1.32567602,-87.40501000
1.32823602,-87.40501000
1.33079602,-87.40501000
1.33335602,-87.40501000
1.33591602,-87.40501000
1.33847602,-87.40501000
1.34103602,-87.40501000
1.34359602,-87.40501000
1.34615602,-87.40501000
1.34871602,-87.40501000
1.35127602,-87.40501000
1.35383602,-87.40501000
1.35639602,-87.40501000
1.35895602,-87.40501000
1.36151602,-87.40501000
1.36407602,-87.40501000
1.36663602,-87.40501000
1.36919602,-87.40501000
1.37175602,-87.40501000
1.37431602,-87.40501000
1.37687602,-87.40501000
1.37943602,-87.40501000
1.38199602,-87.40501000
1.38455602,-87.40501000
1.38711602,-87.40501000
1.38967602,-87.40501000
1.39223602,-87.40501000
1.39479602,-87.40501000
1.39735602,-87.40501000
1.39991602,-87.40501000
1.40247602,-87.40501000
1.40503602,-87.40501000
1.40759602,-87.40501000
1.41015602,-87.40501000
1.41271602,-87.40501000
1.41527602,-82.93404000
1.41783602,-87.40501000
1.42039602,-87.40501000
1.42295602,-87.40501000
1.42551602,-87.40501000
1.42807602,-82.93404000
1.43063602,-82.93404000
1.43319602,-82.93404000
1.43575602,-87.40501000
1.43831602,-87.40501000
1.44087602,-87.40501000
1.44343602,-87.40501000
1.44599602,-82.93404000
1.44855602,-82.93404000
1.45111602,-82.93404000
1.45367602,-82.93404000
1.45623602,-82.93404000
1.45879602,-82.93404000
1.46135602,-87.40501000
1.46391602,-82.93404000
1.46647602,-82.93404000
1.46903602,-82.93404000
1.47159602,-82.93404000
1.47415602,-82.93404000
1.47671602,-87.40501000
1.47927602,-82.93404000
1.48183602,-82.93404000
1.48439602,-82.93404000
1.48695602,-82.93404000
1.48951602,-82.93404000
1.49207602,-82.93404000
1.49463602,-82.93404000
1.49719602,-82.93404000
1.49975602,-82.93404000
1.50231602,-82.93404000
1.50487602,-82.93404000
1.50743602,-82.93404000
1.50999602,-82.93404000
1.51255602,-82.93404000
1.51511602,-82.93404000
1.51767602,-82.93404000
1.52023602,-78.46308000
1.52279602,-82.93404000
1.52535602,-82.93404000
1.52791602,-82.93404000
1.53047602,-82.93404000
1.53303602,-82.93404000
1.53559602,-82.93404000
1.53815602,-82.93404000
1.54071602,-82.93404000
1.54327602,-82.93404000
1.54583602,-82.93404000
1.54839602,-82.93404000
1.55095602,-82.93404000
1.55351602,-82.93404000
1.55607602,-82.93404000
1.55863602,-82.93404000
1.56119602,-78.46308000
1.56375602,-78.46308000
1.56631602,-82.93404000
1.56887602,-82.93404000
1.57143602,-82.93404000
1.57399602,-78.46308000
1.57655602,-82.93404000
1.57911602,-82.93404000
1.58167602,-82.93404000
1.58423602,-78.46308000
1.58679602,-78.46308000
1.58935602,-78.46308000
1.59191602,-78.46308000
1.59447602,-78.46308000
1.59703602,-82.93404000
1.59959602,-78.46308000
1.60215602,-78.46308000
1.60471602,-82.93404000
1.60727602,-78.46308000
1.60983602,-78.46308000
1.61239602,-78.46308000
1.61495602,-78.46308000
1.61751602,-78.46308000
1.62007602,-78.46308000
1.62263602,-78.46308000
1.62519602,-78.46308000
1.62775602,-78.46308000
1.63031602,-82.93404000
1.63287602,-78.46308000
1.63543602,-78.46308000
1.63799602,-78.46308000
1.64055602,-78.46308000
1.64311602,-78.46308000
1.64567602,-78.46308000
1.64823602,-78.46308000
1.65079602,-78.46308000
1.65335602,-78.46308000
1.65591602,-78.46308000
1.65847602,-78.46308000
1.66103602,-78.46308000
1.66359602,-78.46308000
1.66615602,-78.46308000
1.66871602,-78.46308000
1.67127602,-78.46308000
1.67383602,-78.46308000
1.67639602,-78.46308000
1.67895602,-78.46308000
1.68151602,-78.46308000
1.68407602,-78.46308000
1.68663602,-78.46308000
1.68919602,-78.46308000
1.69175602,-78.46308000
1.69431602,-78.46308000
1.69687602,-78.46308000
1.69943602,-78.46308000
1.70199602,-78.46308000
1.70455602,-78.46308000
1.70711602,-78.46308000
1.70967602,-78.46308000
1.71223602,-78.46308000
1.71479602,-78.46308000
1.71735602,-78.46308000
1.71991602,-78.46308000
1.72247602,-78.46308000
1.72503602,-78.46308000
1.72759602,-78.46308000
1.73015602,-78.46308000
1.73271602,-78.46308000
1.73527602,-78.46308000
1.73783602,-78.46308000
1.74039602,-78.46308000
1.74295602,-78.46308000
1.74551602,-78.46308000
1.74807602,-78.46308000
1.75063602,-78.46308000
1.75319602,-78.46308000
1.75575602,-78.46308000
1.75831602,-78.46308000
1.76087602,-78.46308000
1.76343602,-78.46308000
1.76599602,-78.46308000
1.76855602,-78.46308000
1.77111602,-78.46308000
1.77367602,-78.46308000
1.77623602,-78.46308000
1.77879602,-78.46308000
1.78135602,-73.99212000
1.78391602,-78.46308000
1.78647602,-78.46308000
1.78903602,-78.46308000
1.79159602,-78.46308000
1.79415602,-78.46308000
1.79671602,-73.99212000
1.79927602,-78.46308000
1.80183602,-78.46308000
1.80439602,-78.46308000
1.80695602,-78.46308000
1.80951602,-78.46308000
1.81207602,-78.46308000
1.81463602,-78.46308000
1.81719602,-78.46308000
1.81975602,-78.46308000
1.82231602,-73.99212000
1.82487602,-78.46308000
1.82743602,-73.99212000
1.82999602,-78.46308000
1.83255602,-78.46308000
1.83511602,-78.46308000
1.83767602,-78.46308000
1.84023602,-78.46308000
1.84279602,-78.46308000
1.84535602,-73.99212000
1.84791602,-73.99212000
1.85047602,-78.46308000
1.85303602,-73.99212000
1.85559602,-78.46308000
1.85815602,-73.99212000
1.86071602,-73.99212000
1.86327602,-78.46308000
1.86583602,-78.46308000
1.86839602,-73.99212000
1.87095602,-73.99212000
1.87351602,-78.46308000
1.87607602,-73.99212000
1.87863602,-78.46308000
1.88119602,-78.46308000
1.88375602,-73.99212000
1.88631602,-73.99212000
1.88887602,-73.99212000
1.89143602,-73.99212000
1.89399602,-78.46308000
1.89655602,-73.99212000
1.89911602,-73.99212000
1.90167602,-73.99212000
1.90423602,-73.99212000
1.90679602,-73.99212000
1.90935602,-78.46308000
1.91191602,-78.46308000
1.91447602,-73.99212000
1.91703602,-73.99212000
1.91959602,-73.99212000
1.92215602,-73.99212000
1.92471602,-73.99212000
1.92727602,-73.99212000
1.92983602,-73.99212000
1.93239602,-73.99212000
1.93495602,-73.99212000
1.93751602,-73.99212000
1.94007602,-73.99212000
1.94263602,-73.99212000
1.94519602,-78.46308000
1.94775602,-78.46308000
1.95031602,-73.99212000
1.95287602,-73.99212000
1.95543602,-73.99212000
1.95799602,-73.99212000
1.96055602,-69.50591000
1.96311602,-69.50591000
1.96567602,-73.99212000
1.96823602,-73.99212000
1.97079602,-69.50591000
1.97335602,-73.99212000
1.97591602,-69.50591000
1.97847602,-73.99212000
1.98103602,-73.99212000
1.98359602,-73.99212000
1.98615602,-73.99212000
1.98871602,-73.99212000
1.99127602,-69.50591000
1.99383602,-73.99212000
1.99639602,-73.99212000
1.99895602,-69.50591000
2.00151602,-69.50591000
2.00407602,-69.50591000
2.00663602,-73.99212000
2.00919602,-73.99212000
2.01175602,-69.50591000
2.01431602,-69.50591000
2.01687602,-73.99212000
2.01943602,-73.99212000
2.02199602,-69.50591000
2.02455602,-73.99212000
2.02711602,-73.99212000
2.02967602,-69.50591000
2.03223602,-73.99212000
2.03479602,-69.50591000
2.03735602,-73.99212000
2.03991602,-73.99212000
2.04247602,-73.99212000
2.04503602,-73.99212000
2.04759602,-73.99212000
2.05015602,-73.99212000
2.05271602,-73.99212000
2.05527602,-73.99212000
2.05783602,-78.46308000
2.06039602,-73.99212000
2.06295602,-73.99212000
2.06551602,-78.46308000
2.06807602,-73.99212000
2.07063602,-73.99212000
2.07319602,-73.99212000
2.07575602,-78.46308000
2.07831602,-78.46308000
2.08087602,-78.46308000
2.08343602,-73.99212000
2.08599602,-78.46308000
2.08855602,-78.46308000
2.09111602,-78.46308000
2.09367602,-73.99212000
2.09623602,-78.46308000
2.09879602,-78.46308000
2.10135602,-78.46308000
2.10391602,-78.46308000
2.10647602,-73.99212000
2.10903602,-78.46308000
2.11159602,-78.46308000
2.11415602,-78.46308000
2.11671602,-78.46308000
2.11927602,-78.46308000
2.12183602,-78.46308000
2.12439602,-78.46308000
2.12695602,-78.46308000
2.12951602,-78.46308000
2.13207602,-78.46308000
2.13463602,-78.46308000
2.13719602,-78.46308000
2.13975602,-78.46308000
2.14231602,-78.46308000
2.14487602,-78.46308000
2.14743602,-78.46308000
2.14999602,-78.46308000
2.15255602,-78.46308000
2.15511602,-78.46308000
2.15767602,-78.46308000
2.16023602,-78.46308000
2.16279602,-78.46308000
2.16535602,-78.46308000
2.16791602,-78.46308000
2.17047602,-78.46308000
2.17303602,-78.46308000
2.17559602,-78.46308000
2.17815602,-82.93404000
2.18071602,-78.46308000
2.18327602,-82.93404000
2.18583602,-82.93404000
2.18839602,-78.46308000
2.19095602,-78.46308000
2.19351602,-82.93404000
2.19607602,-82.93404000
2.19863602,-82.93404000
2.20119602,-82.93404000
2.20375602,-82.93404000
2.20631602,-82.93404000
2.20887602,-82.93404000
2.21143602,-82.93404000
2.21399602,-82.93404000
2.21655602,-82.93404000
2.21911602,-82.93404000
2.22167602,-87.40501000
2.22423602,-87.40501000
2.22679602,-87.40501000
2.22935602,-87.40501000
2.23191602,-87.40501000
2.23447602,-87.40501000
2.23703602,-87.40501000
2.23959602,-87.40501000
2.24215602,-87.40501000
2.24471602,-87.40501000
2.24727602,-87.40501000
2.24983602,-87.40501000
2.25239602,-87.40501000
2.25495602,-87.40501000
2.25751602,-91.87596000
2.26007602,-91.87596000
2.26263602,-91.87596000
2.26519602,-91.87596000
2.26775602,-91.87596000
2.27031602,-96.34693000
2.27287602,-96.34693000
2.27543602,-96.34693000
2.27799602,-96.34693000
2.28055602,-96.34693000
2.28311602,-96.34693000
2.28567602,-96.34693000
2.28823602,-96.34693000
2.29079602,-96.34693000
2.29335602,-96.34693000
2.29591602,-96.34693000
2.29847602,-100.81790000
2.30103602,-96.34693000
2.30359602,-100.81790000
2.30615602,-100.81790000
2.30871602,-100.81790000
2.31127602,-100.81790000
2.31383602,-100.81790000
2.31639602,-100.81790000
2.31895602,-105.28880000
2.32151602,-105.28880000
2.32407602,-105.28880000
2.32663602,-105.28880000
2.32919602,-105.28880000
2.33175602,-105.28880000
2.33431602,-105.28880000
2.33687602,-105.28880000
2.33943602,-105.28880000
2.34199602,-105.28880000
2.34455602,-105.28880000
2.34711602,-105.28880000
2.34967602,-109.75980000
2.35223602,-105.28880000
2.35479602,-105.28880000
2.35735602,-109.75980000
2.35991602,-109.75980000
2.36247602,-109.75980000
2.36503602,-109.75980000
2.36759602,-114.23080000
2.37015602,-114.23080000
2.37271602,-114.23080000
2.37527602,-114.23080000
2.37783602,-114.23080000
2.38039602,-114.23080000
2.38295602,-114.23080000
2.38551602,-114.23080000
2.38807602,-114.23080000
2.39063602,-114.23080000
2.39319602,-114.23080000
2.39575602,-114.23080000
2.39831602,-114.23080000
2.40087602,-114.23080000
2.40343602,-114.23080000
2.40599602,-114.23080000
2.40855602,-114.23080000
2.41111602,-114.23080000
2.41367602,-118.70170000
2.41623602,-118.70170000
2.41879602,-114.23080000
2.42135602,-114.23080000
2.42391602,-118.70170000
2.42647602,-118.70170000
2.42903602,-118.70170000
2.43159602,-118.70170000
2.43415602,-118.70170000
2.43671602,-118.70170000
2.43927602,-118.70170000
2.44183602,-118.70170000
2.44439602,-118.70170000
2.44695602,-118.70170000
2.44951602,-118.70170000
2.45207602,-118.70170000
2.45463602,-118.70170000
2.45719602,-118.70170000
2.45975602,-118.70170000
2.46231602,-114.23080000
2.46487602,-118.70170000
2.46743602,-118.70170000
2.46999602,-118.70170000
2.47255602,-118.70170000
2.47511602,-118.70170000
2.47767602,-118.70170000
2.48023602,-118.70170000
2.48279602,-118.70170000
2.48535602,-118.70170000
2.48791602,-118.70170000
2.49047602,-118.70170000
2.49303602,-114.23080000
2.49559602,-118.70170000
2.49815602,-118.70170000
2.50071602,-118.70170000
2.50327602,-118.70170000
2.50583602,-118.70170000
2.50839602,-118.70170000
2.51095602,-118.70170000
2.51351602,-118.70170000
2.51607602,-118.70170000
2.51863602,-118.70170000
2.52119602,-118.70170000
2.52375602,-118.70170000
2.52631602,-118.70170000
2.52887602,-114.23080000
2.53143602,-118.70170000
2.53399602,-118.70170000
2.53655602,-118.70170000
2.53911602,-114.23080000
2.54167602,-118.70170000
2.54423602,-114.23080000
2.54679602,-118.70170000
2.54935602,-118.70170000
2.55191602,-114.23080000
2.55447602,-114.23080000
2.55703602,-114.23080000
2.55959602,-114.23080000
2.56215602,-114.23080000
2.56471602,-114.23080000
2.56727602,-114.23080000
2.56983602,-114.23080000
2.57239602,-114.23080000
2.57495601,-114.23080000
2.57751601,-114.23080000
2.58007601,-114.23080000
2.58263601,-114.23080000
2.58519601,-114.23080000
2.58775601,-114.23080000
2.59031601,-114.23080000
2.59287601,-114.23080000
2.59543601,-114.23080000
2.59799601,-114.23080000
2.60055601,-109.75980000
2.60311601,-109.75980000
2.60567601,-114.23080000
2.60823601,-109.75980000
2.61079601,-109.75980000
2.61335601,-109.75980000
2.61591601,-109.75980000
2.61847601,-109.75980000
2.62103601,-109.75980000
2.62359601,-105.28880000
2.62615601,-109.75980000
2.62871601,-105.28880000
2.63127601,-105.28880000
2.63383601,-105.28880000
2.63639601,-105.28880000
2.63895601,-105.28880000
2.64151601,-105.28880000
2.64407601,-105.28880000
2.64663601,-105.28880000
2.64919601,-105.28880000
2.65175601,-105.28880000
2.65431601,-105.28880000
2.65687601,-105.28880000
2.65943601,-105.28880000
2.66199601,-105.28880000
2.66455601,-105.28880000
2.66711601,-105.28880000
2.66967601,-100.81790000
2.67223601,-100.81790000
2.67479601,-100.81790000
2.67735601,-100.81790000
2.67991601,-100.81790000
2.68247601,-100.81790000
2.68503601,-100.81790000
2.68759601,-96.34693000
2.69015601,-96.34693000
2.69271601,-96.34693000
2.69527601,-96.34693000
2.69783601,-96.34693000
2.70039601,-96.34693000
2.70295601,-96.34693000
2.70551601,-96.34693000
2.70807601,-91.87596000
2.71063601,-91.87596000
2.71319601,-91.87596000
2.71575601,-91.87596000
2.71831601,-87.40501000
2.72087601,-87.40501000
2.72343601,-87.40501000
2.72599601,-87.40501000
2.72855601,-87.40501000
2.73111601,-87.40501000
2.73367601,-87.40501000
2.73623601,-82.93404000
2.73879601,-82.93404000
2.74135601,-82.93404000
2.74391601,-82.93404000
2.74647601,-82.93404000
2.74903601,-78.46308000
2.75159601,-78.46308000
2.75415601,-78.46308000
2.75671601,-78.46308000
2.75927601,-78.46308000
2.76183601,-73.99212000
2.76439601,-73.99212000
2.76695601,-73.99212000
2.76951601,-73.99212000
2.77207601,-69.50591000
2.77463601,-69.50591000
2.77719601,-69.50591000
2.77975601,-69.50591000
2.78231601,-69.50591000
2.78487601,-69.50591000
2.78743601,-65.03493000
2.78999601,-65.03493000
2.79255601,-65.03493000
2.79511601,-65.03493000
2.79767601,-60.56398000
2.80023601,-60.56398000
2.80279601,-60.56398000
2.80535601,-60.56398000
2.80791601,-60.56398000
2.81047601,-56.09302000
2.81303601,-56.09302000
2.81559601,-56.09302000
2.81815601,-56.09302000
2.82071601,-51.62206000
2.82327601,-51.62206000
2.82583601,-51.62206000
2.82839601,-51.62206000
2.83095601,-51.62206000
2.83351601,-51.62206000
2.83607601,-51.62206000
2.83863601,-51.62206000
2.84119601,-47.15109000
2.84375601,-47.15109000
2.84631601,-47.15109000
2.84887601,-47.15109000
2.85143601,-42.68013000
2.85399601,-42.68013000
2.85655601,-42.68013000
2.85911601,-42.68013000
2.86167601,-42.68013000
2.86423601,-42.68013000
2.86679601,-42.68013000
2.86935601,-42.68013000
2.87191601,-38.20917000
2.87447601,-38.20917000
2.87703601,-38.20917000
2.87959601,-38.20917000
2.88215601,-33.73821000
2.88471601,-33.73821000
2.88727601,-38.20917000
2.88983601,-33.73821000
2.89239601,-33.73821000
2.89495601,-33.73821000
2.89751601,-33.73821000
2.90007601,-33.73821000
2.90263601,-33.73821000
2.90519601,-33.73821000
2.90775601,-33.73821000
2.91031601,-33.73821000
2.91287601,-33.73821000
2.91543601,-33.73821000
2.91799601,-33.73821000
2.92055601,-33.73821000
2.92311601,-29.26725000
2.92567601,-29.26725000
2.92823601,-29.26725000
2.93079601,-29.26725000
2.93335601,-29.26725000
2.93591601,-29.26725000
2.93847601,-29.26725000
2.94103601,-29.26725000
2.94359601,-29.26725000
2.94615601,-29.26725000
2.94871601,-29.26725000
2.95127601,-29.26725000
2.95383601,-29.26725000
2.95639601,-24.79629000
2.95895601,-24.79629000
2.96151601,-24.79629000
2.96407601,-24.79629000
2.96663601,-24.79629000
2.96919601,-24.79629000
2.97175601,-24.79629000
2.97431601,-24.79629000
2.97687601,-24.79629000
2.97943601,-24.79629000
2.98199601,-24.79629000
2.98455601,-24.79629000
2.98711601,-24.79629000
2.98967601,-24.79629000
2.99223601,-24.79629000
2.99479601,-24.79629000
2.99735601,-24.79629000
2.99991601,-24.79629000
3.00247601,-24.79629000
3.00503601,-24.79629000
3.00759601,-24.79629000
3.01015601,-24.79629000
3.01271601,-24.79629000
3.01527601,-24.79629000
3.01783601,-24.79629000
3.02039601,-24.79629000
3.02295601,-24.79629000
3.02551601,-24.79629000
3.02807601,-24.79629000
3.03063601,-24.79629000
3.03319601,-24.79629000
3.03575601,-24.79629000
3.03831601,-24.79629000
3.04087601,-24.79629000
3.04343601,-24.79629000
3.04599601,-24.79629000
3.04855601,-24.79629000
3.05111601,-24.79629000
3.05367601,-24.79629000
3.05623601,-24.79629000
3.05879601,-24.79629000
3.06135601,-24.79629000
3.06391601,-24.79629000
3.06647601,-24.79629000
3.06903601,-24.79629000
3.07159601,-24.79629000
3.07415601,-24.79629000
3.07671601,-24.79629000
3.07927601,-24.79629000
3.08183601,-24.79629000
3.08439601,-24.79629000
3.08695601,-24.79629000
3.08951601,-24.79629000
3.09207601,-24.79629000
3.09463601,-24.79629000
3.09719601,-24.79629000
3.09975601,-24.79629000
3.10231601,-24.79629000
3.10487601,-24.79629000
3.10743601,-24.79629000
3.10999601,-24.79629000
3.11255601,-24.79629000
3.11511601,-24.79629000
3.11767601,-24.79629000
3.12023601,-24.79629000
3.12279601,-24.79629000
3.12535601,-29.26725000
3.12791601,-29.26725000
3.13047601,-29.26725000
3.13303601,-29.26725000
3.13559601,-29.26725000
3.13815601,-24.79629000
3.14071601,-29.26725000
3.14327601,-29.26725000
3.14583601,-29.26725000
3.14839601,-29.26725000
3.15095601,-29.26725000
3.15351601,-29.26725000
3.15607601,-29.26725000
3.15863601,-29.26725000
3.16119601,-29.26725000
3.16375601,-33.73821000
3.16631601,-33.73821000
3.16887601,-29.26725000
3.17143601,-29.26725000
3.17399601,-33.73821000
3.17655601,-29.26725000
3.17911601,-33.73821000
3.18167601,-33.73821000
3.18423601,-33.73821000
3.18679601,-33.73821000
3.18935601,-33.73821000
3.19191601,-33.73821000
3.19447601,-33.73821000
3.19703601,-33.73821000
3.19959601,-33.73821000
3.20215601,-33.73821000
3.20471601,-33.73821000
3.20727601,-33.73821000
3.20983601,-33.73821000
3.21239601,-33.73821000
3.21495601,-33.73821000
3.21751601,-33.73821000
3.22007601,-33.73821000
3.22263601,-38.20917000
3.22519601,-33.73821000
3.22775601,-33.73821000
3.23031601,-38.20917000
3.23287601,-33.73821000
3.23543601,-38.20917000
3.23799601,-38.20917000
3.24055601,-38.20917000
3.24311601,-38.20917000
3.24567601,-42.68013000
3.24823601,-38.20917000
3.25079601,-38.20917000
3.25335601,-38.20917000
3.25591601,-38.20917000
3.25847601,-42.68013000
3.26103601,-42.68013000
3.26359601,-42.68013000
3.26615601,-42.68013000
3.26871601,-42.68013000
3.27127601,-42.68013000
3.27383601,-42.68013000
3.27639601,-42.68013000
3.27895601,-42.68013000
3.28151601,-42.68013000
3.28407601,-42.68013000
3.28663601,-42.68013000
3.28919601,-42.68013000
3.29175601,-42.68013000
3.29431601,-42.68013000
3.29687601,-42.68013000
3.29943601,-47.15109000
3.30199601,-42.68013000
3.30455601,-47.15109000
3.30711601,-47.15109000
3.30967601,-47.15109000
3.31223601,-47.15109000
3.31479601,-47.15109000
3.31735601,-42.68013000
3.31991601,-47.15109000
3.32247601,-47.15109000
3.32503601,-47.15109000
3.32759601,-47.15109000
3.33015601,-51.62206000
3.33271601,-47.15109000
3.33527601,-47.15109000
3.33783601,-51.62206000
3.34039601,-51.62206000
3.34295601,-51.62206000
3.34551601,-51.62206000
3.34807601,-51.62206000
3.35063601,-51.62206000
3.35319601,-51.62206000
3.35575601,-51.62206000
3.35831601,-51.62206000
3.36087601,-51.62206000
3.36343601,-51.62206000
3.36599601,-51.62206000
3.36855601,-51.62206000
3.37111601,-51.62206000
3.37367601,-51.62206000
3.37623601,-56.09302000
3.37879601,-51.62206000
3.38135601,-51.62206000
3.38391601,-51.62206000
3.38647601,-56.09302000
3.38903601,-56.09302000
3.39159601,-51.62206000
3.39415601,-51.62206000
3.39671601,-56.09302000
3.39927601,-56.09302000
3.40183601,-56.09302000
3.40439601,-56.09302000
3.40695601,-56.09302000
3.40951601,-60.56398000
3.41207601,-56.09302000
3.41463601,-60.56398000
3.41719601,-60.56398000
3.41975601,-56.09302000
3.42231601,-60.56398000
3.42487601,-60.56398000
3.42743601,-60.56398000
3.42999601,-60.56398000
3.43255601,-60.56398000
3.43511601,-60.56398000
3.43767601,-60.56398000
3.44023601,-60.56398000
3.44279601,-60.56398000
3.44535601,-60.56398000
3.44791601,-60.56398000
3.45047601,-60.56398000
3.45303601,-60.56398000
3.45559601,-60.56398000
3.45815601,-60.56398000
3.46071601,-60.56398000
3.46327601,-60.56398000
3.46583601,-65.03493000
3.46839601,-65.03493000
3.47095601,-65.03493000
3.47351601,-65.03493000
3.47607601,-65.03493000
3.47863601,-65.03493000
3.48119601,-65.03493000
3.48375601,-65.03493000
3.48631601,-65.03493000
3.48887601,-65.03493000
3.49143601,-65.03493000
3.49399601,-65.03493000
3.49655601,-65.03493000
3.49911601,-65.03493000
3.50167601,-69.50591000
3.50423601,-65.03493000
3.50679601,-69.50591000
3.50935601,-69.50591000
3.51191601,-69.50591000
3.51447601,-69.50591000
3.51703601,-69.50591000
3.51959601,-69.50591000
3.52215601,-69.50591000
3.52471601,-69.50591000
3.52727601,-69.50591000
3.52983601,-69.50591000
3.53239601,-69.50591000
3.53495601,-69.50591000
3.53751601,-69.50591000
3.54007601,-69.50591000
3.54263601,-69.50591000
3.54519601,-69.50591000
3.54775601,-69.50591000
3.55031601,-69.50591000
3.55287601,-69.50591000
3.55543601,-69.50591000
3.55799601,-69.50591000
3.56055601,-69.50591000
3.56311601,-69.50591000
3.56567601,-69.50591000
3.56823601,-69.50591000
3.57079601,-69.50591000
3.57335601,-69.50591000
3.57591601,-69.50591000
3.57847601,-73.99212000
3.58103601,-69.50591000
3.58359601,-73.99212000
3.58615601,-69.50591000
3.58871601,-73.99212000
3.59127601,-73.99212000
3.59383601,-73.99212000
3.59639601,-73.99212000
3.59895601,-73.99212000
3.60151601,-73.99212000
3.60407601,-73.99212000
3.60663601,-73.99212000
3.60919601,-73.99212000
3.61175601,-73.99212000
3.61431601,-73.99212000
3.61687601,-73.99212000
3.61943601,-73.99212000
3.62199601,-73.99212000
3.62455601,-73.99212000
3.62711601,-73.99212000
3.62967601,-73.99212000
3.63223601,-73.99212000
3.63479601,-73.99212000
3.63735601,-73.99212000
3.63991601,-73.99212000
3.64247601,-73.99212000
3.64503601,-78.46308000
3.64759601,-78.46308000
3.65015601,-73.99212000
3.65271601,-73.99212000
3.65527601,-78.46308000
3.65783601,-73.99212000
3.66039601,-73.99212000
3.66295601,-73.99212000
3.66551601,-73.99212000
3.66807601,-73.99212000
3.67063601,-73.99212000
3.67319601,-73.99212000
3.67575601,-78.46308000
3.67831601,-73.99212000
3.68087601,-73.99212000
3.68343601,-73.99212000
3.68599601,-73.99212000
3.68855601,-78.46308000
3.69111601,-78.46308000
3.69367601,-78.46308000
3.69623601,-78.46308000
3.69879601,-78.46308000
3.70135601,-78.46308000
3.70391601,-73.99212000
3.70647601,-73.99212000
3.70903601,-73.99212000
3.71159601,-78.46308000
3.71415601,-78.46308000
3.71671601,-78.46308000
3.71927601,-78.46308000
3.72183601,-73.99212000
3.72439601,-78.46308000
3.72695601,-73.99212000
3.72951601,-78.46308000
3.73207601,-78.46308000
3.73463601,-78.46308000
3.73719601,-78.46308000
3.73975601,-78.46308000
3.74231601,-78.46308000
3.74487601,-78.46308000
3.74743601,-78.46308000
3.74999601,-78.46308000
3.75255601,-78.46308000
3.75511601,-73.99212000
3.75767601,-78.46308000
3.76023601,-78.46308000
3.76279601,-78.46308000
3.76535601,-78.46308000
3.76791601,-73.99212000
3.77047601,-78.46308000
3.77303601,-78.46308000
3.77559601,-78.46308000
3.77815601,-78.46308000
3.78071601,-78.46308000
3.78327601,-78.46308000
3.78583601,-78.46308000
3.78839601,-78.46308000
3.79095601,-78.46308000
3.79351601,-73.99212000
3.79607601,-78.46308000
3.79863601,-73.99212000
3.80119601,-78.46308000
3.80375601,-78.46308000
3.80631601,-78.46308000
3.80887601,-78.46308000
3.81143601,-78.46308000
3.81399601,-78.46308000
3.81655601,-78.46308000
3.81911601,-73.99212000
3.82167601,-78.46308000
3.82423601,-78.46308000
3.82679601,-78.46308000
3.82935601,-78.46308000
3.83191601,-78.46308000
3.83447601,-78.46308000
3.83703601,-73.99212000
3.83959601,-78.46308000
3.84215601,-73.99212000
3.84471601,-78.46308000
3.84727601,-73.99212000
3.84983601,-78.46308000
3.85239601,-73.99212000
3.85495601,-78.46308000
3.85751601,-73.99212000
3.86007601,-73.99212000
3.86263601,-78.46308000
3.86519601,-78.46308000
3.86775601,-73.99212000
3.87031601,-73.99212000
3.87287601,-73.99212000
3.87543601,-73.99212000
3.87799601,-73.99212000
3.88055601,-73.99212000
3.88311601,-78.46308000
3.88567601,-78.46308000
3.88823601,-78.46308000
3.89079601,-78.46308000
3.89335601,-78.46308000
3.89591601,-73.99212000
3.89847601,-73.99212000
3.90103601,-73.99212000
3.90359601,-73.99212000
3.90615601,-73.99212000
3.90871601,-73.99212000
3.91127601,-73.99212000
3.91383601,-73.99212000
3.91639601,-73.99212000
3.91895601,-69.50591000
3.92151601,-73.99212000
3.92407601,-73.99212000
3.92663601,-73.99212000
3.92919601,-73.99212000
3.93175601,-69.50591000
3.93431601,-73.99212000
3.93687601,-69.50591000
3.93943601,-73.99212000
3.94199601,-73.99212000
3.94455601,-69.50591000
3.94711601,-73.99212000
3.94967601,-73.99212000
3.95223601,-69.50591000
3.95479601,-69.50591000
3.95735601,-73.99212000
3.95991601,-69.50591000
3.96247601,-69.50591000
3.96503601,-69.50591000
3.96759601,-69.50591000
3.97015601,-73.99212000
3.97271601,-69.50591000
3.97527601,-69.50591000
3.97783601,-69.50591000
3.98039601,-69.50591000
3.98295601,-69.50591000
3.98551601,-73.99212000
3.98807601,-69.50591000
3.99063601,-69.50591000
3.99319601,-69.50591000
3.99575601,-69.50591000
3.99831601,-69.50591000
4.00087601,-69.50591000
4.00343601,-73.99212000
4.00599601,-69.50591000
4.00855601,-69.50591000
4.01111601,-69.50591000
4.01367601,-69.50591000
4.01623601,-69.50591000
4.01879601,-69.50591000
4.02135601,-69.50591000
4.02391601,-69.50591000
4.02647601,-69.50591000
4.02903601,-69.50591000
4.03159601,-69.50591000
4.03415601,-69.50591000
4.03671601,-69.50591000
4.03927601,-69.50591000
4.04183601,-69.50591000
4.04439601,-73.99212000
4.04695601,-69.50591000
4.04951601,-69.50591000
4.05207601,-69.50591000
4.05463601,-69.50591000
4.05719601,-69.50591000
4.05975601,-69.50591000
4.06231601,-69.50591000
4.06487601,-69.50591000
4.06743601,-69.50591000
4.06999601,-69.50591000
4.07255601,-69.50591000
4.07511601,-69.50591000
4.07767601,-69.50591000
4.08023601,-69.50591000
4.08279601,-69.50591000
4.08535601,-69.50591000
4.08791601,-69.50591000
4.09047601,-69.50591000
4.09303601,-69.50591000
4.09559601,-69.50591000
4.09815601,-69.50591000
4.10071601,-69.50591000
4.10327601,-69.50591000
4.10583601,-69.50591000
4.10839601,-69.50591000
4.11095601,-69.50591000
4.11351601,-69.50591000
4.11607601,-69.50591000
4.11863601,-69.50591000
4.12119601,-69.50591000
4.12375601,-69.50591000
4.12631601,-69.50591000
4.12887601,-69.50591000
4.13143601,-69.50591000
4.13399601,-69.50591000
4.13655601,-69.50591000
4.13911601,-69.50591000
4.14167601,-69.50591000
4.14423601,-69.50591000
4.14679601,-69.50591000
4.14935601,-69.50591000
4.15191601,-69.50591000
4.15447601,-69.50591000
4.15703601,-69.50591000
4.15959601,-69.50591000
4.16215601,-69.50591000
4.16471601,-69.50591000
4.16727601,-69.50591000
4.16983601,-69.50591000
4.17239601,-69.50591000
4.17495601,-69.50591000
4.17751601,-69.50591000
4.18007601,-69.50591000
4.18263601,-69.50591000
4.18519601,-69.50591000
4.18775601,-69.50591000
4.19031601,-69.50591000
4.19287601,-69.50591000
4.19543601,-69.50591000
4.19799601,-69.50591000
4.20055601,-69.50591000
4.20311601,-69.50591000
4.20567601,-69.50591000
4.20823601,-69.50591000
4.21079601,-69.50591000
4.21335601,-69.50591000
4.21591601,-69.50591000
4.21847601,-69.50591000
4.22103600,-69.50591000
4.22359600,-69.50591000
4.22615600,-69.50591000
4.22871600,-69.50591000
4.23127600,-69.50591000
4.23383600,-69.50591000
4.23639600,-69.50591000
4.23895600,-69.50591000
4.24151600,-69.50591000
4.24407600,-69.50591000
4.24663600,-69.50591000
4.24919600,-69.50591000
4.25175600,-69.50591000
4.25431600,-69.50591000
4.25687600,-69.50591000
4.25943600,-69.50591000
4.26199600,-69.50591000
4.26455600,-69.50591000
4.26711600,-69.50591000
4.26967600,-69.50591000
4.27223600,-69.50591000
4.27479600,-69.50591000
4.27735600,-69.50591000
4.27991600,-69.50591000
4.28247600,-69.50591000
4.28503600,-69.50591000
4.28759600,-69.50591000
4.29015600,-69.50591000
4.29271600,-69.50591000
4.29527600,-69.50591000
4.29783600,-69.50591000
4.30039600,-69.50591000
4.30295600,-69.50591000
4.30551600,-69.50591000
4.30807600,-69.50591000
4.31063600,-69.50591000
4.31319600,-69.50591000
4.31575600,-69.50591000
4.31831600,-69.50591000
4.32087600,-69.50591000
4.32343600,-69.50591000
4.32599600,-69.50591000
4.32855600,-69.50591000
4.33111600,-69.50591000
4.33367600,-69.50591000
4.33623600,-69.50591000
4.33879600,-69.50591000
4.34135600,-69.50591000
4.34391600,-69.50591000
4.34647600,-69.50591000
4.34903600,-69.50591000
4.35159600,-69.50591000
4.35415600,-69.50591000
4.35671600,-69.50591000
4.35927600,-69.50591000
4.36183600,-69.50591000
4.36439600,-69.50591000
4.36695600,-69.50591000
4.36951600,-69.50591000
4.37207600,-69.50591000
4.37463600,-69.50591000
4.37719600,-69.50591000
4.37975600,-69.50591000
4.38231600,-69.50591000
4.38487600,-69.50591000
4.38743600,-69.50591000
4.38999600,-69.50591000
4.39255600,-69.50591000
4.39511600,-69.50591000
4.39767600,-69.50591000
4.40023600,-69.50591000
4.40279600,-69.50591000
4.40535600,-69.50591000
4.40791600,-69.50591000
4.41047600,-69.50591000
4.41303600,-69.50591000
4.41559600,-69.50591000
4.41815600,-69.50591000
4.42071600,-69.50591000
4.42327600,-69.50591000
4.42583600,-69.50591000
4.42839600,-69.50591000
4.43095600,-69.50591000
4.43351600,-69.50591000
4.43607600,-69.50591000
4.43863600,-69.50591000
4.44119600,-69.50591000
4.44375600,-69.50591000
4.44631600,-69.50591000
4.44887600,-69.50591000
4.45143600,-69.50591000
4.45399600,-69.50591000
4.45655600,-69.50591000
4.45911600,-69.50591000
4.46167600,-69.50591000
4.46423600,-69.50591000
4.46679600,-69.50591000
4.46935600,-69.50591000
4.47191600,-69.50591000
4.47447600,-69.50591000
4.47703600,-69.50591000
4.47959600,-69.50591000
4.48215600,-69.50591000
4.48471600,-69.50591000
4.48727600,-69.50591000
4.48983600,-69.50591000
4.49239600,-69.50591000
4.49495600,-69.50591000
4.49751600,-69.50591000
4.50007600,-69.50591000
4.50263600,-69.50591000
4.50519600,-69.50591000
4.50775600,-69.50591000
4.51031600,-69.50591000
4.51287600,-69.50591000
4.51543600,-69.50591000
4.51799600,-69.50591000
4.52055600,-69.50591000
4.52311600,-69.50591000
4.52567600,-69.50591000
4.52823600,-69.50591000
4.53079600,-69.50591000
4.53335600,-69.50591000
4.53591600,-69.50591000
4.53847600,-69.50591000
4.54103600,-69.50591000
4.54359600,-69.50591000
4.54615600,-69.50591000
4.54871600,-69.50591000
4.55127600,-69.50591000
4.55383600,-69.50591000
4.55639600,-69.50591000
4.55895600,-69.50591000
4.56151600,-69.50591000
4.56407600,-69.50591000
4.56663600,-69.50591000
4.56919600,-69.50591000
4.57175600,-69.50591000
4.57431600,-69.50591000
4.57687600,-69.50591000
4.57943600,-69.50591000
4.58199600,-69.50591000
4.58455600,-69.50591000
4.58711600,-69.50591000
4.58967600,-69.50591000
4.59223600,-69.50591000
4.59479600,-69.50591000
4.59735600,-69.50591000
4.59991600,-69.50591000
4.60247600,-69.50591000
4.60503600,-69.50591000
4.60759600,-69.50591000
4.61015600,-69.50591000
4.61271600,-69.50591000
4.61527600,-69.50591000
4.61783600,-69.50591000
4.62039600,-69.50591000
4.62295600,-69.50591000
4.62551600,-69.50591000
4.62807600,-69.50591000
4.63063600,-69.50591000
4.63319600,-69.50591000
4.63575600,-69.50591000
4.63831600,-69.50591000
4.64087600,-69.50591000
4.64343600,-69.50591000
4.64599600,-73.99212000
4.64855600,-69.50591000
4.65111600,-69.50591000
4.65367600,-69.50591000
4.65623600,-69.50591000
4.65879600,-69.50591000
4.66135600,-69.50591000
4.66391600,-69.50591000
4.66647600,-69.50591000
4.66903600,-69.50591000
4.67159600,-69.50591000
4.67415600,-69.50591000
4.67671600,-69.50591000
4.67927600,-69.50591000
4.68183600,-69.50591000
4.68439600,-69.50591000
4.68695600,-69.50591000
4.68951600,-69.50591000
4.69207600,-69.50591000
4.69463600,-69.50591000
4.69719600,-69.50591000
4.69975600,-69.50591000
4.70231600,-69.50591000
4.70487600,-69.50591000
4.70743600,-69.50591000
4.70999600,-69.50591000
4.71255600,-69.50591000
4.71511600,-69.50591000
4.71767600,-69.50591000
4.72023600,-69.50591000
4.72279600,-69.50591000
4.72535600,-69.50591000
4.72791600,-69.50591000
4.73047600,-69.50591000
4.73303600,-69.50591000
4.73559600,-69.50591000
4.73815600,-69.50591000
4.74071600,-69.50591000
4.74327600,-69.50591000
4.74583600,-69.50591000
4.74839600,-69.50591000
4.75095600,-69.50591000
4.75351600,-69.50591000
4.75607600,-69.50591000
4.75863600,-69.50591000
4.76119600,-69.50591000
4.76375600,-69.50591000
4.76631600,-69.50591000
4.76887600,-69.50591000
4.77143600,-69.50591000
4.77399600,-69.50591000
4.77655600,-69.50591000
4.77911600,-69.50591000
4.78167600,-69.50591000
4.78423600,-69.50591000
4.78679600,-69.50591000
4.78935600,-69.50591000
4.79191600,-69.50591000
4.79447600,-69.50591000
4.79703600,-69.50591000
4.79959600,-69.50591000
4.80215600,-69.50591000
4.80471600,-69.50591000
4.80727600,-69.50591000
4.80983600,-69.50591000
4.81239600,-69.50591000
4.81495600,-69.50591000
4.81751600,-69.50591000
4.82007600,-69.50591000
4.82263600,-69.50591000
4.82519600,-69.50591000
4.82775600,-69.50591000
4.83031600,-69.50591000
4.83287600,-69.50591000
4.83543600,-69.50591000
4.83799600,-69.50591000
4.84055600,-69.50591000
4.84311600,-69.50591000
4.84567600,-69.50591000
4.84823600,-69.50591000
4.85079600,-69.50591000
4.85335600,-69.50591000
4.85591600,-69.50591000
4.85847600,-69.50591000
4.86103600,-69.50591000
4.86359600,-69.50591000
4.86615600,-69.50591000
4.86871600,-69.50591000
4.87127600,-69.50591000
4.87383600,-69.50591000
4.87639600,-73.99212000
4.87895600,-69.50591000
4.88151600,-69.50591000
4.88407600,-69.50591000
4.88663600,-69.50591000
4.88919600,-73.99212000
4.89175600,-69.50591000
4.89431600,-73.99212000
4.89687600,-73.99212000
4.89943600,-73.99212000
4.90199600,-73.99212000
4.90455600,-73.99212000
4.90711600,-69.50591000
4.90967600,-73.99212000
4.91223600,-73.99212000
4.91479600,-69.50591000
4.91735600,-73.99212000
4.91991600,-73.99212000
4.92247600,-73.99212000
4.92503600,-69.50591000
4.92759600,-73.99212000
4.93015600,-73.99212000
4.93271600,-69.50591000
4.93527600,-73.99212000
4.93783600,-69.50591000
4.94039600,-69.50591000
4.94295600,-73.99212000
4.94551600,-73.99212000
4.94807600,-73.99212000
4.95063600,-73.99212000
4.95319600,-73.99212000
4.95575600,-73.99212000
4.95831600,-73.99212000
4.96087600,-73.99212000
4.96343600,-78.46308000
4.96599600,-73.99212000
4.96855600,-73.99212000
4.97111600,-69.50591000
4.97367600,-73.99212000
4.97623600,-69.50591000
4.97879600,-73.99212000
4.98135600,-73.99212000
4.98391600,-73.99212000
4.98647600,-69.50591000
4.98903600,-69.50591000
4.99159600,-73.99212000
4.99415600,-73.99212000
4.99671600,-73.99212000
4.99927600,-73.99212000
5.00183600,-73.99212000
5.00439600,-73.99212000
5.00695600,-69.50591000
5.00951600,-73.99212000
5.01207600,-69.50591000
5.01463600,-69.50591000
5.01719600,-73.99212000
5.01975600,-69.50591000
5.02231600,-73.99212000
5.02487600,-73.99212000
5.02743600,-69.50591000
5.02999600,-73.99212000
5.03255600,-69.50591000
5.03511600,-73.99212000
5.03767600,-69.50591000
5.04023600,-73.99212000
5.04279600,-73.99212000
5.04535600,-69.50591000
5.04791600,-69.50591000
5.05047600,-73.99212000
5.05303600,-69.50591000
5.05559600,-69.50591000
5.05815600,-69.50591000
5.06071600,-69.50591000
5.06327600,-73.99212000
5.06583600,-69.50591000
5.06839600,-69.50591000
5.07095600,-69.50591000
5.07351600,-69.50591000
5.07607600,-69.50591000
5.07863600,-69.50591000
5.08119600,-69.50591000
5.08375600,-69.50591000
5.08631600,-69.50591000
5.08887600,-69.50591000
5.09143600,-69.50591000
5.09399600,-69.50591000
5.09655600,-69.50591000
5.09911600,-69.50591000
5.10167600,-69.50591000
5.10423600,-69.50591000
5.10679600,-69.50591000
5.10935600,-69.50591000
5.11191600,-69.50591000
5.11447600,-69.50591000
5.11703600,-69.50591000
5.11959600,-69.50591000
5.12215600,-69.50591000
5.12471600,-69.50591000
5.12727600,-69.50591000
5.12983600,-73.99212000
5.13239600,-69.50591000
5.13495600,-69.50591000
5.13751600,-69.50591000
5.14007600,-69.50591000
5.14263600,-69.50591000
5.14519600,-69.50591000
5.14775600,-69.50591000
5.15031600,-69.50591000
5.15287600,-69.50591000
5.15543600,-73.99212000
5.15799600,-69.50591000
5.16055600,-69.50591000
5.16311600,-73.99212000
5.16567600,-73.99212000
5.16823600,-69.50591000
5.17079600,-69.50591000
5.17335600,-73.99212000
5.17591600,-69.50591000
5.17847600,-69.50591000
5.18103600,-73.99212000
5.18359600,-69.50591000
5.18615600,-69.50591000
5.18871600,-73.99212000
5.19127600,-73.99212000
5.19383600,-69.50591000
5.19639600,-69.50591000
5.19895600,-69.50591000
5.20151600,-69.50591000
5.20407600,-69.50591000
5.20663600,-73.99212000
5.20919600,-73.99212000
5.21175600,-69.50591000
5.21431600,-69.50591000
5.21687600,-69.50591000
5.21943600,-69.50591000
5.22199600,-69.50591000
5.22455600,-69.50591000
5.22711600,-73.99212000
5.22967600,-69.50591000
5.23223600,-69.50591000
5.23479600,-73.99212000
5.23735600,-69.50591000
5.23991600,-69.50591000
5.24247600,-73.99212000
5.24503600,-73.99212000
5.24759600,-69.50591000
5.25015600,-69.50591000
5.25271600,-69.50591000
5.25527600,-69.50591000
5.25783600,-69.50591000
5.26039600,-69.50591000
5.26295600,-73.99212000
5.26551600,-69.50591000
5.26807600,-73.99212000
5.27063600,-69.50591000
5.27319600,-69.50591000
5.27575600,-73.99212000
5.27831600,-73.99212000
5.28087600,-69.50591000
5.28343600,-73.99212000
5.28599600,-73.99212000
5.28855600,-73.99212000
5.29111600,-69.50591000
5.29367600,-73.99212000
5.29623600,-69.50591000
5.29879600,-69.50591000
5.30135600,-69.50591000
5.30391600,-69.50591000
5.30647600,-73.99212000
5.30903600,-69.50591000
5.31159600,-73.99212000
5.31415600,-73.99212000
5.31671600,-69.50591000
5.31927600,-69.50591000
5.32183600,-73.99212000
5.32439600,-73.99212000
5.32695600,-69.50591000
5.32951600,-69.50591000
5.33207600,-73.99212000
5.33463600,-73.99212000
5.33719600,-69.50591000
5.33975600,-73.99212000
5.34231600,-73.99212000
5.34487600,-73.99212000
5.34743600,-73.99212000
5.34999600,-69.50591000
5.35255600,-69.50591000
5.35511600,-69.50591000
5.35767600,-73.99212000
5.36023600,-73.99212000
5.36279600,-69.50591000
5.36535600,-73.99212000
5.36791600,-69.50591000
5.37047600,-73.99212000
5.37303600,-73.99212000
5.37559600,-73.99212000
5.37815600,-73.99212000
5.38071600,-73.99212000
5.38327600,-73.99212000
5.38583600,-73.99212000
5.38839600,-73.99212000
5.39095600,-73.99212000
5.39351600,-73.99212000
5.39607600,-69.50591000
5.39863600,-69.50591000
5.40119600,-69.50591000
5.40375600,-73.99212000
5.40631600,-73.99212000
5.40887600,-69.50591000
5.41143600,-73.99212000
5.41399600,-73.99212000
5.41655600,-73.99212000
5.41911600,-73.99212000
5.42167600,-73.99212000
5.42423600,-73.99212000
5.42679600,-69.50591000
5.42935600,-73.99212000
5.43191600,-69.50591000
5.43447600,-73.99212000
5.43703600,-73.99212000
5.43959600,-73.99212000
5.44215600,-73.99212000
5.44471600,-73.99212000
5.44727600,-73.99212000
5.44983600,-73.99212000
5.45239600,-73.99212000
5.45495600,-69.50591000
5.45751600,-73.99212000
5.46007600,-69.50591000
5.46263600,-73.99212000
5.46519600,-73.99212000
5.46775600,-73.99212000
5.47031600,-73.99212000
5.47287600,-73.99212000
5.47543600,-73.99212000
5.47799600,-73.99212000
5.48055600,-73.99212000
5.48311600,-69.50591000
5.48567600,-73.99212000
5.48823600,-73.99212000
5.49079600,-78.46308000
5.49335600,-78.46308000
5.49591600,-73.99212000
5.49847600,-73.99212000
5.50103600,-73.99212000
5.50359600,-78.46308000
5.50615600,-73.99212000
5.50871600,-73.99212000
5.51127600,-73.99212000
5.51383600,-73.99212000
5.51639600,-73.99212000
5.51895600,-73.99212000
5.52151600,-73.99212000
5.52407600,-73.99212000
5.52663600,-73.99212000
5.52919600,-78.46308000
5.53175600,-73.99212000
5.53431600,-73.99212000
5.53687600,-73.99212000
5.53943600,-78.46308000
5.54199600,-73.99212000
5.54455600,-73.99212000
5.54711600,-73.99212000
5.54967600,-73.99212000
5.55223600,-78.46308000
5.55479600,-73.99212000
5.55735600,-73.99212000
5.55991600,-73.99212000
5.56247600,-73.99212000
5.56503600,-73.99212000
5.56759600,-73.99212000
5.57015600,-73.99212000
5.57271600,-73.99212000
5.57527600,-73.99212000
5.57783600,-78.46308000
5.58039600,-78.46308000
5.58295600,-73.99212000
5.58551600,-73.99212000
5.58807600,-73.99212000
5.59063600,-73.99212000
5.59319600,-73.99212000
5.59575600,-78.46308000
5.59831600,-69.50591000
5.60087600,-73.99212000
5.60343600,-73.99212000
5.60599600,-73.99212000
5.60855600,-73.99212000
5.61111600,-73.99212000
5.61367600,-78.46308000
5.61623600,-73.99212000
5.61879600,-73.99212000
5.62135600,-73.99212000
5.62391600,-73.99212000
5.62647600,-73.99212000
5.62903600,-73.99212000
5.63159600,-73.99212000
5.63415600,-73.99212000
5.63671600,-73.99212000
5.63927600,-73.99212000
5.64183600,-73.99212000
5.64439600,-73.99212000
5.64695600,-73.99212000
5.64951600,-73.99212000
5.65207600,-73.99212000
5.65463600,-73.99212000
5.65719600,-69.50591000
5.65975600,-73.99212000
5.66231600,-73.99212000
5.66487600,-69.50591000
5.66743600,-73.99212000
5.66999600,-73.99212000
5.67255600,-73.99212000
5.67511600,-78.46308000
5.67767600,-69.50591000
5.68023600,-73.99212000
5.68279600,-73.99212000
5.68535600,-73.99212000
5.68791600,-73.99212000
5.69047600,-73.99212000
5.69303600,-73.99212000
5.69559600,-73.99212000
5.69815600,-73.99212000
5.70071600,-69.50591000
5.70327600,-73.99212000
5.70583600,-73.99212000
5.70839600,-73.99212000
5.71095600,-73.99212000
5.71351600,-78.46308000
5.71607600,-73.99212000
5.71863600,-73.99212000
5.72119600,-78.46308000
5.72375600,-78.46308000
5.72631600,-73.99212000
5.72887600,-73.99212000
5.73143600,-73.99212000
5.73399600,-73.99212000
5.73655600,-73.99212000
5.73911600,-78.46308000
5.74167600,-73.99212000
5.74423600,-73.99212000
5.74679600,-73.99212000
5.74935600,-73.99212000
5.75191600,-78.46308000
5.75447600,-73.99212000
5.75703600,-73.99212000
5.75959600,-69.50591000
5.76215600,-73.99212000
5.76471600,-73.99212000
5.76727600,-73.99212000
5.76983600,-73.99212000
5.77239600,-73.99212000
5.77495600,-73.99212000
5.77751600,-73.99212000
5.78007600,-73.99212000
5.78263600,-73.99212000
5.78519600,-73.99212000
5.78775600,-73.99212000
5.79031600,-73.99212000
5.79287600,-73.99212000
5.79543600,-69.50591000
5.79799600,-73.99212000
5.80055600,-73.99212000
5.80311600,-73.99212000
5.80567600,-73.99212000
5.80823600,-73.99212000
5.81079600,-73.99212000
5.81335600,-73.99212000
5.81591600,-73.99212000
5.81847600,-73.99212000
5.82103600,-73.99212000
5.82359600,-73.99212000
5.82615600,-78.46308000
5.82871600,-73.99212000
5.83127600,-73.99212000
5.83383600,-73.99212000
5.83639600,-73.99212000
5.83895600,-73.99212000
5.84151600,-73.99212000
5.84407600,-73.99212000
5.84663600,-73.99212000
5.84919600,-73.99212000
5.85175600,-73.99212000
5.85431600,-73.99212000
5.85687600,-73.99212000
5.85943600,-73.99212000
5.86199600,-78.46308000
5.86455600,-73.99212000
5.86711599,-73.99212000
5.86967599,-73.99212000
5.87223599,-73.99212000
5.87479599,-73.99212000
5.87735599,-73.99212000
5.87991599,-73.99212000
5.88247599,-73.99212000
5.88503599,-73.99212000
5.88759599,-73.99212000
5.89015599,-73.99212000
5.89271599,-78.46308000
5.89527599,-73.99212000
5.89783599,-78.46308000
5.90039599,-78.46308000
5.90295599,-73.99212000
5.90551599,-73.99212000
5.90807599,-73.99212000
5.91063599,-73.99212000
5.91319599,-78.46308000
5.91575599,-73.99212000
5.91831599,-78.46308000
5.92087599,-78.46308000
5.92343599,-73.99212000
5.92599599,-73.99212000
5.92855599,-73.99212000
5.93111599,-78.46308000
5.93367599,-73.99212000
5.93623599,-73.99212000
5.93879599,-73.99212000
5.94135599,-73.99212000
5.94391599,-73.99212000
5.94647599,-78.46308000
5.94903599,-73.99212000
5.95159599,-73.99212000
5.95415599,-73.99212000
5.95671599,-78.46308000
5.95927599,-73.99212000
5.96183599,-78.46308000
5.96439599,-73.99212000
5.96695599,-73.99212000
5.96951599,-73.99212000
5.97207599,-73.99212000
5.97463599,-78.46308000
5.97719599,-73.99212000
5.97975599,-78.46308000
5.98231599,-78.46308000
5.98487599,-73.99212000
5.98743599,-73.99212000
5.98999599,-78.46308000
5.99255599,-73.99212000
5.99511599,-78.46308000
5.99767599,-73.99212000
6.00023599,-73.99212000
6.00279599,-73.99212000
6.00535599,-73.99212000
6.00791599,-78.46308000
6.01047599,-78.46308000
6.01303599,-73.99212000
6.01559599,-73.99212000
6.01815599,-73.99212000
6.02071599,-73.99212000
6.02327599,-73.99212000
6.02583599,-78.46308000
6.02839599,-78.46308000
6.03095599,-73.99212000
6.03351599,-73.99212000
6.03607599,-73.99212000
6.03863599,-73.99212000
6.04119599,-73.99212000
6.04375599,-73.99212000
6.04631599,-73.99212000
6.04887599,-78.46308000
6.05143599,-73.99212000
6.05399599,-73.99212000
6.05655599,-73.99212000
6.05911599,-73.99212000
6.06167599,-78.46308000
6.06423599,-73.99212000
6.06679599,-78.46308000
6.06935599,-73.99212000
6.07191599,-73.99212000
6.07447599,-73.99212000
6.07703599,-73.99212000
6.07959599,-73.99212000
6.08215599,-73.99212000
6.08471599,-73.99212000
6.08727599,-73.99212000
6.08983599,-73.99212000
6.09239599,-73.99212000
6.09495599,-73.99212000
6.09751599,-73.99212000
6.10007599,-73.99212000
6.10263599,-73.99212000
6.10519599,-73.99212000
6.10775599,-73.99212000
6.11031599,-73.99212000
6.11287599,-73.99212000
6.11543599,-73.99212000
6.11799599,-73.99212000
6.12055599,-73.99212000
6.12311599,-73.99212000
6.12567599,-73.99212000
6.12823599,-73.99212000
6.13079599,-73.99212000
6.13335599,-73.99212000
6.13591599,-73.99212000
6.13847599,-73.99212000
6.14103599,-73.99212000
6.14359599,-73.99212000
6.14615599,-73.99212000
6.14871599,-73.99212000
6.15127599,-73.99212000
6.15383599,-73.99212000
6.15639599,-69.50591000
6.15895599,-73.99212000
6.16151599,-73.99212000
6.16407599,-73.99212000
6.16663599,-73.99212000
6.16919599,-73.99212000
6.17175599,-73.99212000
6.17431599,-69.50591000
6.17687599,-73.99212000
6.17943599,-73.99212000
6.18199599,-73.99212000
6.18455599,-73.99212000
6.18711599,-73.99212000
6.18967599,-73.99212000
6.19223599,-73.99212000
6.19479599,-73.99212000
6.19735599,-73.99212000
6.19991599,-73.99212000
6.20247599,-73.99212000
6.20503599,-73.99212000
6.20759599,-73.99212000
6.21015599,-73.99212000
6.21271599,-69.50591000
6.21527599,-73.99212000
6.21783599,-73.99212000
6.22039599,-73.99212000
6.22295599,-73.99212000
6.22551599,-73.99212000
6.22807599,-73.99212000
6.23063599,-73.99212000
6.23319599,-69.50591000
6.23575599,-73.99212000
6.23831599,-73.99212000
6.24087599,-69.50591000
6.24343599,-73.99212000
6.24599599,-73.99212000
6.24855599,-73.99212000
6.25111599,-73.99212000
6.25367599,-73.99212000
6.25623599,-73.99212000
6.25879599,-69.50591000
6.26135599,-69.50591000
6.26391599,-73.99212000
6.26647599,-73.99212000
6.26903599,-73.99212000
6.27159599,-73.99212000
6.27415599,-73.99212000
6.27671599,-73.99212000
6.27927599,-73.99212000
6.28183599,-73.99212000
6.28439599,-73.99212000
6.28695599,-78.46308000
6.28951599,-73.99212000
6.29207599,-73.99212000
6.29463599,-69.50591000
6.29719599,-73.99212000
6.29975599,-69.50591000
6.30231599,-69.50591000
6.30487599,-69.50591000
6.30743599,-73.99212000
6.30999599,-73.99212000
6.31255599,-73.99212000
6.31511599,-69.50591000
6.31767599,-73.99212000
6.32023599,-73.99212000
6.32279599,-73.99212000
6.32535599,-69.50591000
6.32791599,-73.99212000
6.33047599,-73.99212000
6.33303599,-73.99212000
6.33559599,-73.99212000
6.33815599,-73.99212000
6.34071599,-73.99212000
6.34327599,-73.99212000
6.34583599,-73.99212000
6.34839599,-73.99212000
6.35095599,-69.50591000
6.35351599,-73.99212000
6.35607599,-73.99212000
6.35863599,-73.99212000
6.36119599,-73.99212000
6.36375599,-73.99212000
6.36631599,-73.99212000
6.36887599,-73.99212000
6.37143599,-69.50591000
6.37399599,-69.50591000
6.37655599,-73.99212000
6.37911599,-69.50591000
6.38167599,-69.50591000
6.38423599,-73.99212000
6.38679599,-69.50591000
6.38935599,-73.99212000
6.39191599,-73.99212000
6.39447599,-73.99212000
6.39703599,-73.99212000
6.39959599,-73.99212000
6.40215599,-73.99212000
6.40471599,-69.50591000
6.40727599,-78.46308000
6.40983599,-73.99212000
6.41239599,-73.99212000
6.41495599,-73.99212000
6.41751599,-73.99212000
6.42007599,-73.99212000
6.42263599,-73.99212000
6.42519599,-69.50591000
6.42775599,-73.99212000
6.43031599,-69.50591000
6.43287599,-73.99212000
6.43543599,-73.99212000
6.43799599,-73.99212000
6.44055599,-73.99212000
6.44311599,-73.99212000
6.44567599,-73.99212000
6.44823599,-73.99212000
6.45079599,-69.50591000
6.45335599,-73.99212000
6.45591599,-73.99212000
6.45847599,-69.50591000
6.46103599,-73.99212000
6.46359599,-73.99212000
6.46615599,-73.99212000
6.46871599,-73.99212000
6.47127599,-73.99212000
6.47383599,-73.99212000
6.47639599,-73.99212000
6.47895599,-73.99212000
6.48151599,-73.99212000
6.48407599,-73.99212000
6.48663599,-73.99212000
6.48919599,-73.99212000
6.49175599,-73.99212000
6.49431599,-69.50591000
6.49687599,-73.99212000
6.49943599,-69.50591000
6.50199599,-73.99212000
6.50455599,-73.99212000
6.50711599,-69.50591000
6.50967599,-73.99212000
6.51223599,-69.50591000
6.51479599,-73.99212000
6.51735599,-73.99212000
6.51991599,-69.50591000
6.52247599,-69.50591000
6.52503599,-69.50591000
6.52759599,-73.99212000
6.53015599,-73.99212000
6.53271599,-73.99212000
6.53527599,-69.50591000
6.53783599,-73.99212000
6.54039599,-69.50591000
6.54295599,-69.50591000
6.54551599,-69.50591000
6.54807599,-69.50591000
6.55063599,-69.50591000
6.55319599,-69.50591000
6.55575599,-69.50591000
6.55831599,-69.50591000
6.56087599,-69.50591000
6.56343599,-73.99212000
6.56599599,-69.50591000
6.56855599,-69.50591000
6.57111599,-73.99212000
6.57367599,-69.50591000
6.57623599,-69.50591000
6.57879599,-73.99212000
6.58135599,-73.99212000
6.58391599,-69.50591000
6.58647599,-69.50591000
6.58903599,-73.99212000
6.59159599,-73.99212000
6.59415599,-69.50591000
6.59671599,-69.50591000
6.59927599,-73.99212000
6.60183599,-73.99212000
6.60439599,-69.50591000
6.60695599,-69.50591000
6.60951599,-69.50591000
6.61207599,-73.99212000
6.61463599,-73.99212000
6.61719599,-69.50591000
6.61975599,-73.99212000
6.62231599,-73.99212000
6.62487599,-69.50591000
6.62743599,-69.50591000
6.62999599,-69.50591000
6.63255599,-69.50591000
6.63511599,-73.99212000
6.63767599,-69.50591000
6.64023599,-69.50591000
6.64279599,-69.50591000
6.64535599,-69.50591000
6.64791599,-69.50591000
6.65047599,-73.99212000
6.65303599,-69.50591000
6.65559599,-73.99212000
6.65815599,-69.50591000
6.66071599,-69.50591000
6.66327599,-69.50591000
6.66583599,-69.50591000
6.66839599,-69.50591000
6.67095599,-69.50591000
6.67351599,-73.99212000
6.67607599,-73.99212000
6.67863599,-69.50591000
6.68119599,-69.50591000
6.68375599,-69.50591000
6.68631599,-69.50591000
6.68887599,-73.99212000
6.69143599,-73.99212000
6.69399599,-69.50591000
6.69655599,-73.99212000
6.69911599,-69.50591000
6.70167599,-73.99212000
6.70423599,-73.99212000
6.70679599,-73.99212000
6.70935599,-73.99212000
6.71191599,-73.99212000
6.71447599,-73.99212000
6.71703599,-73.99212000
6.71959599,-73.99212000
6.72215599,-73.99212000
6.72471599,-73.99212000
6.72727599,-73.99212000
6.72983599,-73.99212000
6.73239599,-73.99212000
6.73495599,-73.99212000
6.73751599,-73.99212000
6.74007599,-78.46308000
6.74263599,-78.46308000
6.74519599,-73.99212000
6.74775599,-73.99212000
6.75031599,-73.99212000
6.75287599,-78.46308000
6.75543599,-78.46308000
6.75799599,-78.46308000
6.76055599,-78.46308000
6.76311599,-78.46308000
6.76567599,-78.46308000
6.76823599,-78.46308000
6.77079599,-78.46308000
6.77335599,-78.46308000
6.77591599,-78.46308000
6.77847599,-78.46308000
6.78103599,-78.46308000
6.78359599,-78.46308000
6.78615599,-78.46308000
6.78871599,-78.46308000
6.79127599,-78.46308000
6.79383599,-78.46308000
6.79639599,-78.46308000
6.79895599,-78.46308000
6.80151599,-78.46308000
6.80407599,-78.46308000
6.80663599,-78.46308000
6.80919599,-78.46308000
6.81175599,-78.46308000
6.81431599,-78.46308000
6.81687599,-78.46308000
6.81943599,-78.46308000
6.82199599,-78.46308000
6.82455599,-78.46308000
6.82711599,-82.93404000
6.82967599,-82.93404000
6.83223599,-82.93404000
6.83479599,-82.93404000
6.83735599,-82.93404000
6.83991599,-82.93404000
6.84247599,-82.93404000
6.84503599,-82.93404000
6.84759599,-82.93404000
6.85015599,-82.93404000
6.85271599,-82.93404000
6.85527599,-87.40501000
6.85783599,-82.93404000
6.86039599,-87.40501000
6.86295599,-87.40501000
6.86551599,-87.40501000
6.86807599,-87.40501000
6.87063599,-87.40501000
6.87319599,-87.40501000
6.87575599,-87.40501000
6.87831599,-87.40501000
6.88087599,-87.40501000
6.88343599,-87.40501000
6.88599599,-87.40501000
6.88855599,-87.40501000
6.89111599,-87.40501000
6.89367599,-91.87596000
6.89623599,-91.87596000
6.89879599,-87.40501000
6.90135599,-87.40501000
6.90391599,-91.87596000
6.90647599,-91.87596000
6.90903599,-91.87596000
6.91159599,-91.87596000
6.91415599,-96.34693000
6.91671599,-96.34693000
6.91927599,-96.34693000
6.92183599,-96.34693000
6.92439599,-96.34693000
6.92695599,-96.34693000
6.92951599,-96.34693000
6.93207599,-96.34693000
6.93463599,-96.34693000
6.93719599,-96.34693000
6.93975599,-100.81790000
6.94231599,-96.34693000
6.94487599,-100.81790000
6.94743599,-100.81790000
6.94999599,-100.81790000
6.95255599,-100.81790000
6.95511599,-100.81790000
6.95767599,-100.81790000
6.96023599,-100.81790000
6.96279599,-100.81790000
6.96535599,-105.28880000
6.96791599,-105.28880000
6.97047599,-105.28880000
6.97303599,-100.81790000
6.97559599,-105.28880000
6.97815599,-105.28880000
6.98071599,-105.28880000
6.98327599,-105.28880000
6.98583599,-105.28880000
6.98839599,-105.28880000
6.99095599,-105.28880000
6.99351599,-109.75980000
6.99607599,-105.28880000
6.99863599,-105.28880000
7.00119599,-105.28880000
7.00375599,-109.75980000
7.00631599,-105.28880000
7.00887599,-109.75980000
7.01143599,-109.75980000
7.01399599,-109.75980000
7.01655599,-109.75980000
7.01911599,-114.23080000
7.02167599,-109.75980000
7.02423599,-114.23080000
7.02679599,-114.23080000
7.02935599,-114.23080000
7.03191599,-114.23080000
7.03447599,-114.23080000
7.03703599,-114.23080000
7.03959599,-114.23080000
7.04215599,-114.23080000
7.04471599,-114.23080000
7.04727599,-114.23080000
7.04983599,-114.23080000
7.05239599,-114.23080000
7.05495599,-114.23080000
7.05751599,-114.23080000
7.06007599,-114.23080000
7.06263599,-114.23080000
7.06519599,-118.70170000
7.06775599,-118.70170000
7.07031599,-118.70170000
7.07287599,-118.70170000
7.07543599,-118.70170000
7.07799599,-118.70170000
7.08055599,-118.70170000
7.08311599,-118.70170000
7.08567599,-118.70170000
7.08823599,-118.70170000
7.09079599,-118.70170000
7.09335599,-118.70170000
7.09591599,-118.70170000
7.09847599,-118.70170000
7.10103599,-118.70170000
7.10359599,-118.70170000
7.10615599,-118.70170000
7.10871599,-123.17270000
7.11127599,-118.70170000
7.11383599,-118.70170000
7.11639599,-118.70170000
7.11895599,-118.70170000
7.12151599,-118.70170000
7.12407599,-123.17270000
7.12663599,-118.70170000
7.12919599,-118.70170000
7.13175599,-118.70170000
7.13431599,-123.17270000
7.13687599,-123.17270000
7.13943599,-123.17270000
7.14199599,-118.70170000
7.14455599,-123.17270000
7.14711599,-118.70170000
7.14967599,-123.17270000
7.15223599,-123.17270000
7.15479599,-123.17270000
7.15735599,-123.17270000
7.15991599,-118.70170000
7.16247599,-123.17270000
7.16503599,-123.17270000
7.16759599,-118.70170000
7.17015599,-123.17270000
7.17271599,-123.17270000
7.17527599,-123.17270000
7.17783599,-123.17270000
7.18039599,-123.17270000
7.18295599,-123.17270000
7.18551599,-123.17270000
7.18807599,-123.17270000
7.19063599,-118.70170000
7.19319599,-123.17270000
7.19575599,-118.70170000
7.19831599,-118.70170000
7.20087599,-123.17270000
7.20343599,-123.17270000
7.20599599,-118.70170000
7.20855599,-123.17270000
7.21111599,-123.17270000
7.21367599,-118.70170000
7.21623599,-118.70170000
7.21879599,-123.17270000
7.22135599,-118.70170000
7.22391599,-118.70170000
7.22647599,-118.70170000
7.22903599,-118.70170000
7.23159599,-118.70170000
7.23415599,-118.70170000
7.23671599,-123.17270000
7.23927599,-118.70170000
7.24183599,-118.70170000
7.24439599,-123.17270000
7.24695599,-118.70170000
7.24951599,-118.70170000
7.25207599,-118.70170000
7.25463599,-118.70170000
7.25719599,-118.70170000
7.25975599,-118.70170000
7.26231599,-118.70170000
7.26487599,-118.70170000
7.26743599,-118.70170000
7.26999599,-118.70170000
7.27255599,-118.70170000
7.27511599,-114.23080000
7.27767599,-118.70170000
7.28023599,-114.23080000
7.28279599,-114.23080000
7.28535599,-114.23080000
7.28791599,-114.23080000
7.29047599,-114.23080000
7.29303599,-114.23080000
7.29559599,-114.23080000
7.29815599,-114.23080000
7.30071599,-114.23080000
7.30327599,-114.23080000
7.30583599,-114.23080000
7.30839599,-114.23080000
7.31095599,-114.23080000
7.31351599,-114.23080000
7.31607599,-114.23080000
7.31863599,-114.23080000
7.32119599,-114.23080000
7.32375599,-114.23080000
7.32631599,-109.75980000
7.32887599,-114.23080000
7.33143599,-109.75980000
7.33399599,-114.23080000
7.33655599,-109.75980000
7.33911599,-114.23080000
7.34167599,-109.75980000
7.34423599,-109.75980000
7.34679599,-109.75980000
7.34935599,-109.75980000
7.35191599,-109.75980000
7.35447599,-105.28880000
7.35703599,-105.28880000
7.35959599,-105.28880000
7.36215599,-105.28880000
7.36471599,-105.28880000
7.36727599,-105.28880000
7.36983599,-105.28880000
7.37239599,-105.28880000
7.37495599,-105.28880000
7.37751599,-105.28880000
7.38007599,-105.28880000
7.38263599,-105.28880000
7.38519599,-105.28880000
7.38775599,-105.28880000
7.39031599,-105.28880000
7.39287599,-105.28880000
7.39543599,-105.28880000
7.39799599,-100.81790000
7.40055599,-100.81790000
7.40311599,-105.28880000
7.40567599,-100.81790000
7.40823599,-100.81790000
7.41079599,-100.81790000
7.41335599,-100.81790000
7.41591599,-100.81790000
7.41847599,-100.81790000
7.42103599,-100.81790000
7.42359599,-96.34693000
7.42615599,-100.81790000
7.42871599,-100.81790000
7.43127599,-100.81790000
7.43383599,-96.34693000
7.43639599,-96.34693000
7.43895599,-96.34693000
7.44151599,-96.34693000
7.44407599,-96.34693000
7.44663599,-96.34693000
7.44919599,-96.34693000
7.45175599,-96.34693000
7.45431599,-96.34693000
7.45687599,-96.34693000
7.45943599,-96.34693000
7.46199599,-96.34693000
7.46455599,-96.34693000
7.46711599,-96.34693000
7.46967599,-96.34693000
7.47223599,-96.34693000
7.47479599,-96.34693000
7.47735599,-91.87596000
7.47991599,-91.87596000
7.48247599,-87.40501000
7.48503599,-91.87596000
7.48759599,-87.40501000
7.49015599,-91.87596000
7.49271599,-91.87596000
7.49527599,-87.40501000
7.49783599,-91.87596000
7.50039599,-87.40501000
7.50295599,-87.40501000
7.50551599,-87.40501000
7.50807599,-87.40501000
7.51063598,-87.40501000
7.51319598,-87.40501000
7.51575598,-87.40501000
7.51831598,-87.40501000
7.52087598,-87.40501000
7.52343598,-87.40501000
7.52599598,-87.40501000
7.52855598,-87.40501000
7.53111598,-87.40501000
7.53367598,-87.40501000
7.53623598,-87.40501000
7.53879598,-87.40501000
7.54135598,-82.93404000
7.54391598,-87.40501000
7.54647598,-87.40501000
7.54903598,-87.40501000
7.55159598,-82.93404000
7.55415598,-87.40501000
7.55671598,-82.93404000
7.55927598,-82.93404000
7.56183598,-82.93404000
7.56439598,-82.93404000
7.56695598,-82.93404000
7.56951598,-82.93404000
7.57207598,-82.93404000
7.57463598,-78.46308000
7.57719598,-82.93404000
7.57975598,-82.93404000
7.58231598,-82.93404000
7.58487598,-82.93404000
7.58743598,-78.46308000
7.58999598,-82.93404000
7.59255598,-78.46308000
7.59511598,-78.46308000
7.59767598,-78.46308000
7.60023598,-78.46308000
7.60279598,-78.46308000
7.60535598,-78.46308000
7.60791598,-78.46308000
7.61047598,-78.46308000
7.61303598,-78.46308000
7.61559598,-78.46308000
7.61815598,-78.46308000
7.62071598,-78.46308000
7.62327598,-78.46308000
7.62583598,-78.46308000
7.62839598,-78.46308000
7.63095598,-78.46308000
7.63351598,-78.46308000
7.63607598,-78.46308000
7.63863598,-78.46308000
7.64119598,-78.46308000
7.64375598,-73.99212000
7.64631598,-73.99212000
7.64887598,-78.46308000
7.65143598,-78.46308000
7.65399598,-73.99212000
7.65655598,-73.99212000
7.65911598,-73.99212000
7.66167598,-78.46308000
7.66423598,-73.99212000
7.66679598,-73.99212000
7.66935598,-73.99212000
7.67191598,-69.50591000
7.67447598,-73.99212000
7.67703598,-73.99212000
7.67959598,-73.99212000
7.68215598,-69.50591000
7.68471598,-73.99212000
7.68727598,-73.99212000
7.68983598,-73.99212000
7.69239598,-73.99212000
7.69495598,-73.99212000
7.69751598,-69.50591000
7.70007598,-69.50591000
7.70263598,-69.50591000
7.70519598,-69.50591000
7.70775598,-69.50591000
7.71031598,-69.50591000
7.71287598,-69.50591000
7.71543598,-69.50591000
7.71799598,-69.50591000
7.72055598,-69.50591000
7.72311598,-69.50591000
7.72567598,-69.50591000
7.72823598,-69.50591000
7.73079598,-69.50591000
7.73335598,-69.50591000
7.73591598,-69.50591000
7.73847598,-69.50591000
7.74103598,-69.50591000
7.74359598,-69.50591000
7.74615598,-69.50591000
7.74871598,-69.50591000
7.75127598,-69.50591000
7.75383598,-69.50591000
7.75639598,-69.50591000
7.75895598,-69.50591000
7.76151598,-69.50591000
7.76407598,-69.50591000
7.76663598,-69.50591000
7.76919598,-69.50591000
7.77175598,-69.50591000
7.77431598,-69.50591000
7.77687598,-69.50591000
7.77943598,-69.50591000
7.78199598,-69.50591000
7.78455598,-69.50591000
7.78711598,-69.50591000
7.78967598,-69.50591000
7.79223598,-69.50591000
7.79479598,-69.50591000
7.79735598,-69.50591000
7.79991598,-69.50591000
7.80247598,-69.50591000
7.80503598,-69.50591000
7.80759598,-69.50591000
7.81015598,-69.50591000
7.81271598,-69.50591000
7.81527598,-69.50591000
7.81783598,-69.50591000
7.82039598,-69.50591000
7.82295598,-69.50591000
7.82551598,-69.50591000
7.82807598,-69.50591000
7.83063598,-69.50591000
7.83319598,-69.50591000
7.83575598,-69.50591000
7.83831598,-69.50591000
7.84087598,-65.03493000
7.84343598,-65.03493000
7.84599598,-65.03493000
7.84855598,-69.50591000
7.85111598,-69.50591000
7.85367598,-69.50591000
7.85623598,-69.50591000
7.85879598,-69.50591000
7.86135598,-65.03493000
7.86391598,-69.50591000
7.86647598,-65.03493000
7.86903598,-65.03493000
7.87159598,-65.03493000
7.87415598,-65.03493000
7.87671598,-60.56398000
7.87927598,-65.03493000
7.88183598,-60.56398000
7.88439598,-60.56398000
7.88695598,-60.56398000
7.88951598,-60.56398000
7.89207598,-60.56398000
7.89463598,-60.56398000
7.89719598,-60.56398000
7.89975598,-60.56398000
7.90231598,-60.56398000
7.90487598,-60.56398000
7.90743598,-60.56398000
7.90999598,-60.56398000
7.91255598,-60.56398000
7.91511598,-60.56398000
7.91767598,-56.09302000
7.92023598,-60.56398000
7.92279598,-56.09302000
7.92535598,-56.09302000
7.92791598,-56.09302000
7.93047598,-56.09302000
7.93303598,-51.62206000
7.93559598,-51.62206000
7.93815598,-51.62206000
7.94071598,-51.62206000
7.94327598,-51.62206000
7.94583598,-51.62206000
7.94839598,-51.62206000
7.95095598,-51.62206000
7.95351598,-51.62206000
7.95607598,-51.62206000
7.95863598,-51.62206000
7.96119598,-51.62206000
7.96375598,-51.62206000
7.96631598,-51.62206000
7.96887598,-47.15109000
7.97143598,-47.15109000
7.97399598,-47.15109000
7.97655598,-47.15109000
7.97911598,-47.15109000
7.98167598,-42.68013000
7.98423598,-47.15109000
7.98679598,-42.68013000
7.98935598,-42.68013000
7.99191598,-42.68013000
7.99447598,-42.68013000
7.99703598,-42.68013000
7.99959598,-42.68013000
8.00215598,-42.68013000
8.00471598,-42.68013000
8.00727598,-42.68013000
8.00983598,-38.20917000
8.01239598,-38.20917000
8.01495598,-38.20917000
8.01751598,-33.73821000
8.02007598,-38.20917000
8.02263598,-33.73821000
8.02519598,-33.73821000
8.02775598,-33.73821000
8.03031598,-33.73821000
8.03287598,-33.73821000
8.03543598,-33.73821000
8.03799598,-33.73821000
8.04055598,-33.73821000
8.04311598,-33.73821000
8.04567598,-33.73821000
8.04823598,-33.73821000
8.05079598,-29.26725000
8.05335598,-33.73821000
8.05591598,-29.26725000
8.05847598,-29.26725000
8.06103598,-29.26725000
8.06359598,-29.26725000
8.06615598,-24.79629000
8.06871598,-24.79629000
8.07127598,-24.79629000
8.07383598,-24.79629000
8.07639598,-24.79629000
8.07895598,-24.79629000
8.08151598,-24.79629000
8.08407598,-24.79629000
8.08663598,-24.79629000
8.08919598,-24.79629000
8.09175598,-24.79629000
8.09431598,-24.79629000
8.09687598,-24.79629000
8.09943598,-20.32533000
8.10199598,-24.79629000
8.10455598,-20.32533000
8.10711598,-20.32533000
8.10967598,-20.32533000
8.11223598,-20.32533000
8.11479598,-15.85437000
8.11735598,-20.32533000
8.11991598,-15.85437000
8.12247598,-15.85437000
8.12503598,-15.85437000
8.12759598,-15.85437000
8.13015598,-15.85437000
8.13271598,-15.85437000
8.13527598,-15.85437000
8.13783598,-15.85437000
8.14039598,-15.85437000
8.14295598,-15.85437000
8.14551598,-15.85437000
8.14807598,-15.85437000
8.15063598,-15.85437000
8.15319598,-15.85437000
8.15575598,-15.85437000
8.15831598,-15.85437000
8.16087598,-15.85437000
8.16343598,-15.85437000
8.16599598,-11.38340000
8.16855598,-11.38340000
8.17111598,-15.85437000
8.17367598,-11.38340000
8.17623598,-15.85437000
8.17879598,-11.38340000
8.18135598,-15.85437000
8.18391598,-15.85437000
8.18647598,-11.38340000
8.18903598,-11.38340000
8.19159598,-11.38340000
8.19415598,-11.38340000
8.19671598,-11.38340000
8.19927598,-11.38340000
8.20183598,-15.85437000
8.20439598,-11.38340000
8.20695598,-11.38340000
8.20951598,-11.38340000
8.21207598,-11.38340000
8.21463598,-11.38340000
8.21719598,-11.38340000
8.21975598,-11.38340000
8.22231598,-11.38340000
8.22487598,-11.38340000
8.22743598,-11.38340000
8.22999598,-11.38340000
8.23255598,-15.85437000
8.23511598,-11.38340000
8.23767598,-11.38340000
8.24023598,-15.85437000
8.24279598,-11.38340000
8.24535598,-15.85437000
8.24791598,-15.85437000
8.25047598,-15.85437000
8.25303598,-11.38340000
8.25559598,-15.85437000
8.25815598,-11.38340000
8.26071598,-11.38340000
8.26327598,-11.38340000
8.26583598,-15.85437000
8.26839598,-15.85437000
8.27095598,-15.85437000
8.27351598,-15.85437000
8.27607598,-15.85437000
8.27863598,-15.85437000
8.28119598,-15.85437000
8.28375598,-15.85437000
8.28631598,-15.85437000
8.28887598,-15.85437000
8.29143598,-15.85437000
8.29399598,-15.85437000
8.29655598,-15.85437000
8.29911598,-15.85437000
8.30167598,-15.85437000
8.30423598,-15.85437000
8.30679598,-15.85437000
8.30935598,-15.85437000
8.31191598,-15.85437000
8.31447598,-15.85437000
8.31703598,-15.85437000
8.31959598,-15.85437000
8.32215598,-15.85437000
8.32471598,-15.85437000
8.32727598,-15.85437000
8.32983598,-15.85437000
8.33239598,-15.85437000
8.33495598,-15.85437000
8.33751598,-15.85437000
8.34007598,-15.85437000
8.34263598,-15.85437000
8.34519598,-20.32533000
8.34775598,-15.85437000
8.35031598,-20.32533000
8.35287598,-20.32533000
8.35543598,-20.32533000
8.35799598,-20.32533000
8.36055598,-20.32533000
8.36311598,-20.32533000
8.36567598,-20.32533000
8.36823598,-20.32533000
8.37079598,-20.32533000
8.37335598,-24.79629000
8.37591598,-20.32533000
8.37847598,-24.79629000
8.38103598,-24.79629000
8.38359598,-20.32533000
8.38615598,-24.79629000
8.38871598,-24.79629000
8.39127598,-24.79629000
8.39383598,-24.79629000
8.39639598,-24.79629000
8.39895598,-24.79629000
8.40151598,-24.79629000
8.40407598,-24.79629000
8.40663598,-24.79629000
8.40919598,-24.79629000
8.41175598,-24.79629000
8.41431598,-24.79629000
8.41687598,-24.79629000
8.41943598,-24.79629000
8.42199598,-24.79629000
8.42455598,-24.79629000
8.42711598,-24.79629000
8.42967598,-29.26725000
8.43223598,-29.26725000
8.43479598,-29.26725000
8.43735598,-29.26725000
8.43991598,-29.26725000
8.44247598,-29.26725000
8.44503598,-29.26725000
8.44759598,-29.26725000
8.45015598,-29.26725000
8.45271598,-33.73821000
8.45527598,-29.26725000
8.45783598,-33.73821000
8.46039598,-29.26725000
8.46295598,-33.73821000
8.46551598,-33.73821000
8.46807598,-33.73821000
8.47063598,-33.73821000
8.47319598,-33.73821000
8.47575598,-33.73821000
8.47831598,-33.73821000
8.48087598,-33.73821000
8.48343598,-33.73821000
8.48599598,-33.73821000
8.48855598,-33.73821000
8.49111598,-33.73821000
8.49367598,-33.73821000
8.49623598,-33.73821000
8.49879598,-33.73821000
8.50135598,-33.73821000
8.50391598,-33.73821000
8.50647598,-33.73821000
8.50903598,-33.73821000
8.51159598,-33.73821000
8.51415598,-42.68013000
8.51671598,-38.20917000
8.51927598,-38.20917000
8.52183598,-38.20917000
8.52439598,-38.20917000
8.52695598,-38.20917000
8.52951598,-42.68013000
8.53207598,-42.68013000
8.53463598,-42.68013000
8.53719598,-42.68013000
8.53975598,-42.68013000
8.54231598,-42.68013000
8.54487598,-42.68013000
8.54743598,-42.68013000
8.54999598,-42.68013000
8.55255598,-42.68013000
8.55511598,-42.68013000
8.55767598,-42.68013000
8.56023598,-42.68013000
8.56279598,-42.68013000
8.56535598,-42.68013000
8.56791598,-42.68013000
8.57047598,-42.68013000
8.57303598,-42.68013000
8.57559598,-42.68013000
8.57815598,-47.15109000
8.58071598,-42.68013000
8.58327598,-47.15109000
8.58583598,-47.15109000
8.58839598,-47.15109000
8.59095598,-47.15109000
8.59351598,-47.15109000
8.59607598,-47.15109000
8.59863598,-47.15109000
8.60119598,-47.15109000
8.60375598,-47.15109000
8.60631598,-51.62206000
8.60887598,-51.62206000
8.61143598,-51.62206000
8.61399598,-51.62206000
8.61655598,-51.62206000
8.61911598,-51.62206000
8.62167598,-51.62206000
8.62423598,-51.62206000
8.62679598,-51.62206000
8.62935598,-51.62206000
8.63191598,-51.62206000
8.63447598,-56.09302000
8.63703598,-51.62206000
8.63959598,-51.62206000
8.64215598,-51.62206000
8.64471598,-56.09302000
8.64727598,-56.09302000
8.64983598,-56.09302000
8.65239598,-56.09302000
8.65495598,-56.09302000
8.65751598,-56.09302000
8.66007598,-60.56398000
8.66263598,-56.09302000
8.66519598,-56.09302000
8.66775598,-60.56398000
8.67031598,-60.56398000
8.67287598,-60.56398000
8.67543598,-60.56398000
8.67799598,-60.56398000
8.68055598,-60.56398000
8.68311598,-60.56398000
8.68567598,-60.56398000
8.68823598,-60.56398000
8.69079598,-60.56398000
8.69335598,-60.56398000
8.69591598,-60.56398000
8.69847598,-60.56398000
8.70103598,-60.56398000
8.70359598,-65.03493000
8.70615598,-65.03493000
8.70871598,-60.56398000
8.71127598,-65.03493000
8.71383598,-65.03493000
8.71639598,-65.03493000
8.71895598,-65.03493000
8.72151598,-65.03493000
8.72407598,-65.03493000
8.72663598,-69.50591000
8.72919598,-65.03493000
8.73175598,-65.03493000
8.73431598,-65.03493000
8.73687598,-69.50591000
8.73943598,-69.50591000
8.74199598,-69.50591000
8.74455598,-69.50591000
8.74711598,-69.50591000
8.74967598,-69.50591000
8.75223598,-69.50591000
8.75479598,-69.50591000
8.75735598,-69.50591000
8.75991598,-69.50591000
8.76247598,-69.50591000
8.76503598,-69.50591000
8.76759598,-69.50591000
8.77015598,-69.50591000
8.77271598,-69.50591000
8.77527598,-69.50591000
8.77783598,-69.50591000
8.78039598,-69.50591000
8.78295598,-69.50591000
8.78551598,-69.50591000
8.78807598,-73.99212000
8.79063598,-69.50591000
8.79319598,-73.99212000
8.79575598,-73.99212000
8.79831598,-73.99212000
8.80087598,-73.99212000
8.80343598,-78.46308000
8.80599598,-73.99212000
8.80855598,-78.46308000
8.81111598,-78.46308000
8.81367598,-78.46308000
8.81623598,-78.46308000
8.81879598,-78.46308000
8.82135598,-78.46308000
8.82391598,-73.99212000
8.82647598,-78.46308000
8.82903598,-78.46308000
8.83159598,-78.46308000
8.83415598,-78.46308000
8.83671598,-78.46308000
8.83927598,-78.46308000
8.84183598,-78.46308000
8.84439598,-78.46308000
8.84695598,-78.46308000
8.84951598,-78.46308000
8.85207598,-78.46308000
8.85463598,-78.46308000
8.85719598,-78.46308000
8.85975598,-78.46308000
8.86231598,-78.46308000
8.86487598,-78.46308000
8.86743598,-78.46308000
8.86999598,-78.46308000
8.87255598,-78.46308000
8.87511598,-82.93404000
8.87767598,-78.46308000
8.88023598,-82.93404000
8.88279598,-82.93404000
8.88535598,-82.93404000
8.88791598,-78.46308000
8.89047598,-82.93404000
8.89303598,-82.93404000
8.89559598,-82.93404000
8.89815598,-82.93404000
8.90071598,-82.93404000
8.90327598,-82.93404000
8.90583598,-82.93404000
8.90839598,-82.93404000
8.91095598,-82.93404000
8.91351598,-82.93404000
8.91607598,-82.93404000
8.91863598,-82.93404000
8.92119598,-82.93404000
8.92375598,-82.93404000
8.92631598,-82.93404000
8.92887598,-82.93404000
8.93143598,-82.93404000
8.93399598,-82.93404000
8.93655598,-82.93404000
8.93911598,-82.93404000
8.94167598,-82.93404000
8.94423598,-82.93404000
8.94679598,-82.93404000
8.94935598,-87.40501000
8.95191598,-82.93404000
8.95447598,-87.40501000
8.95703598,-82.93404000
8.95959598,-82.93404000
8.96215598,-82.93404000
8.96471598,-87.40501000
8.96727598,-87.40501000
8.96983598,-82.93404000
8.97239598,-82.93404000
8.97495598,-82.93404000
8.97751598,-82.93404000
8.98007598,-87.40501000
8.98263598,-82.93404000
8.98519598,-87.40501000
8.98775598,-87.40501000
8.99031598,-87.40501000
8.99287598,-87.40501000
8.99543598,-87.40501000
8.99799598,-87.40501000
9.00055598,-87.40501000
9.00311598,-87.40501000
9.00567598,-87.40501000
9.00823598,-87.40501000
9.01079598,-87.40501000
9.01335598,-87.40501000
9.01591598,-87.40501000
9.01847598,-87.40501000
9.02103598,-87.40501000
9.02359598,-87.40501000
9.02615598,-87.40501000
9.02871598,-87.40501000
9.03127598,-87.40501000
9.03383598,-87.40501000
9.03639598,-87.40501000
9.03895598,-87.40501000
9.04151598,-87.40501000
9.04407598,-87.40501000
9.04663598,-87.40501000
9.04919598,-87.40501000
9.05175598,-87.40501000
9.05431598,-87.40501000
9.05687598,-87.40501000
9.05943598,-87.40501000
9.06199598,-87.40501000
9.06455598,-87.40501000
9.06711598,-87.40501000
9.06967598,-87.40501000
9.07223598,-87.40501000
9.07479598,-87.40501000
9.07735598,-87.40501000
9.07991598,-87.40501000
9.08247598,-87.40501000
9.08503598,-87.40501000
9.08759598,-87.40501000
9.09015598,-87.40501000
9.09271598,-87.40501000
9.09527598,-87.40501000
9.09783598,-87.40501000
9.10039598,-87.40501000
9.10295598,-87.40501000
9.10551598,-87.40501000
9.10807598,-87.40501000
9.11063598,-87.40501000
9.11319598,-87.40501000
9.11575598,-87.40501000
9.11831598,-87.40501000
9.12087598,-82.93404000
9.12343598,-87.40501000
9.12599598,-87.40501000
9.12855598,-87.40501000
9.13111598,-87.40501000
9.13367598,-87.40501000
9.13623598,-87.40501000
9.13879598,-87.40501000
9.14135598,-87.40501000
9.14391598,-87.40501000
9.14647598,-87.40501000
9.14903598,-87.40501000
9.15159598,-87.40501000
9.15415598,-87.40501000
9.15671597,-87.40501000
9.15927597,-87.40501000
9.16183597,-87.40501000
9.16439597,-87.40501000
9.16695597,-82.93404000
9.16951597,-87.40501000
9.17207597,-87.40501000
9.17463597,-87.40501000
9.17719597,-82.93404000
9.17975597,-87.40501000
9.18231597,-87.40501000
9.18487597,-87.40501000
9.18743597,-82.93404000
9.18999597,-82.93404000
9.19255597,-87.40501000
9.19511597,-87.40501000
9.19767597,-82.93404000
9.20023597,-87.40501000
9.20279597,-82.93404000
9.20535597,-87.40501000
9.20791597,-82.93404000
9.21047597,-87.40501000
9.21303597,-87.40501000
9.21559597,-87.40501000
9.21815597,-87.40501000
9.22071597,-87.40501000
9.22327597,-82.93404000
9.22583597,-87.40501000
9.22839597,-82.93404000
9.23095597,-87.40501000
9.23351597,-87.40501000
9.23607597,-82.93404000
9.23863597,-87.40501000
9.24119597,-82.93404000
9.24375597,-87.40501000
9.24631597,-87.40501000
9.24887597,-82.93404000
9.25143597,-82.93404000
9.25399597,-87.40501000
9.25655597,-82.93404000
9.25911597,-87.40501000
9.26167597,-87.40501000
9.26423597,-87.40501000
9.26679597,-87.40501000
9.26935597,-87.40501000
9.27191597,-87.40501000
9.27447597,-87.40501000
9.27703597,-82.93404000
9.27959597,-87.40501000
9.28215597,-87.40501000
9.28471597,-82.93404000
9.28727597,-87.40501000
9.28983597,-87.40501000
9.29239597,-87.40501000
9.29495597,-87.40501000
9.29751597,-87.40501000
9.30007597,-87.40501000
9.30263597,-87.40501000
9.30519597,-87.40501000
9.30775597,-82.93404000
9.31031597,-87.40501000
9.31287597,-87.40501000
9.31543597,-87.40501000
9.31799597,-87.40501000
9.32055597,-87.40501000
9.32311597,-82.93404000
9.32567597,-82.93404000
9.32823597,-87.40501000
9.33079597,-87.40501000
9.33335597,-87.40501000
9.33591597,-82.93404000
9.33847597,-82.93404000
9.34103597,-87.40501000
9.34359597,-87.40501000
9.34615597,-82.93404000
9.34871597,-87.40501000
9.35127597,-82.93404000
9.35383597,-82.93404000
9.35639597,-82.93404000
9.35895597,-82.93404000
9.36151597,-82.93404000
9.36407597,-87.40501000
9.36663597,-87.40501000
9.36919597,-82.93404000
9.37175597,-82.93404000
9.37431597,-87.40501000
9.37687597,-82.93404000
9.37943597,-82.93404000
9.38199597,-82.93404000
9.38455597,-82.93404000
9.38711597,-82.93404000
9.38967597,-82.93404000
9.39223597,-82.93404000
9.39479597,-82.93404000
9.39735597,-87.40501000
9.39991597,-87.40501000
9.40247597,-82.93404000
9.40503597,-82.93404000
9.40759597,-82.93404000
9.41015597,-82.93404000
9.41271597,-82.93404000
9.41527597,-82.93404000
9.41783597,-82.93404000
9.42039597,-87.40501000
9.42295597,-82.93404000
9.42551597,-82.93404000
9.42807597,-82.93404000
9.43063597,-82.93404000
9.43319597,-87.40501000
9.43575597,-82.93404000
9.43831597,-82.93404000
9.44087597,-82.93404000
9.44343597,-82.93404000
9.44599597,-82.93404000
9.44855597,-82.93404000
9.45111597,-82.93404000
9.45367597,-82.93404000
9.45623597,-82.93404000
9.45879597,-82.93404000
9.46135597,-82.93404000
9.46391597,-82.93404000
9.46647597,-82.93404000
9.46903597,-82.93404000
9.47159597,-82.93404000
9.47415597,-82.93404000
9.47671597,-82.93404000
9.47927597,-82.93404000
9.48183597,-82.93404000
9.48439597,-82.93404000
9.48695597,-82.93404000
9.48951597,-82.93404000
9.49207597,-82.93404000
9.49463597,-82.93404000
9.49719597,-82.93404000
9.49975597,-82.93404000
9.50231597,-82.93404000
9.50487597,-82.93404000
9.50743597,-82.93404000
9.50999597,-82.93404000
9.51255597,-82.93404000
9.51511597,-82.93404000
9.51767597,-82.93404000
9.52023597,-82.93404000
9.52279597,-82.93404000
9.52535597,-82.93404000
9.52791597,-82.93404000
9.53047597,-82.93404000
9.53303597,-82.93404000
9.53559597,-82.93404000
9.53815597,-82.93404000
9.54071597,-82.93404000
9.54327597,-82.93404000
9.54583597,-82.93404000
9.54839597,-82.93404000
9.55095597,-82.93404000
9.55351597,-82.93404000
9.55607597,-82.93404000
9.55863597,-82.93404000
9.56119597,-82.93404000
9.56375597,-82.93404000
9.56631597,-82.93404000
9.56887597,-82.93404000
9.57143597,-82.93404000
9.57399597,-82.93404000
9.57655597,-78.46308000
9.57911597,-82.93404000
9.58167597,-82.93404000
9.58423597,-82.93404000
9.58679597,-82.93404000
9.58935597,-82.93404000
9.59191597,-82.93404000
9.59447597,-82.93404000
9.59703597,-82.93404000
9.59959597,-82.93404000
9.60215597,-82.93404000
9.60471597,-82.93404000
9.60727597,-82.93404000
9.60983597,-82.93404000
9.61239597,-82.93404000
9.61495597,-82.93404000
9.61751597,-82.93404000
9.62007597,-82.93404000
9.62263597,-82.93404000
9.62519597,-82.93404000
9.62775597,-82.93404000
9.63031597,-82.93404000
9.63287597,-82.93404000
9.63543597,-82.93404000
9.63799597,-82.93404000
9.64055597,-82.93404000
9.64311597,-78.46308000
9.64567597,-82.93404000
9.64823597,-82.93404000
9.65079597,-82.93404000
9.65335597,-78.46308000
9.65591597,-82.93404000
9.65847597,-78.46308000
9.66103597,-78.46308000
9.66359597,-78.46308000
9.66615597,-82.93404000
9.66871597,-82.93404000
9.67127597,-82.93404000
9.67383597,-82.93404000
9.67639597,-82.93404000
9.67895597,-78.46308000
9.68151597,-78.46308000
9.68407597,-78.46308000
9.68663597,-82.93404000
9.68919597,-78.46308000
9.69175597,-82.93404000
9.69431597,-82.93404000
9.69687597,-78.46308000
9.69943597,-78.46308000
9.70199597,-82.93404000
9.70455597,-78.46308000
9.70711597,-82.93404000
9.70967597,-78.46308000
9.71223597,-78.46308000
9.71479597,-78.46308000
9.71735597,-78.46308000
9.71991597,-82.93404000
9.72247597,-78.46308000
9.72503597,-78.46308000
9.72759597,-78.46308000
9.73015597,-78.46308000
9.73271597,-78.46308000
9.73527597,-78.46308000
9.73783597,-78.46308000
9.74039597,-78.46308000
9.74295597,-78.46308000
9.74551597,-78.46308000
9.74807597,-78.46308000
9.75063597,-78.46308000
9.75319597,-78.46308000
9.75575597,-82.93404000
9.75831597,-78.46308000
9.76087597,-78.46308000
9.76343597,-78.46308000
9.76599597,-78.46308000
9.76855597,-78.46308000
9.77111597,-78.46308000
9.77367597,-78.46308000
9.77623597,-78.46308000
9.77879597,-78.46308000
9.78135597,-78.46308000
9.78391597,-78.46308000
9.78647597,-78.46308000
9.78903597,-78.46308000
9.79159597,-78.46308000
9.79415597,-78.46308000
9.79671597,-78.46308000
9.79927597,-78.46308000
9.80183597,-78.46308000
9.80439597,-78.46308000
9.80695597,-82.93404000
9.80951597,-78.46308000
9.81207597,-78.46308000
9.81463597,-78.46308000
9.81719597,-78.46308000
9.81975597,-78.46308000
9.82231597,-78.46308000
9.82487597,-82.93404000
9.82743597,-78.46308000
9.82999597,-78.46308000
9.83255597,-78.46308000
9.83511597,-78.46308000
9.83767597,-78.46308000
9.84023597,-78.46308000
9.84279597,-78.46308000
9.84535597,-78.46308000
9.84791597,-78.46308000
9.85047597,-78.46308000
9.85303597,-78.46308000
9.85559597,-78.46308000
9.85815597,-78.46308000
9.86071597,-78.46308000
9.86327597,-78.46308000
9.86583597,-78.46308000
9.86839597,-78.46308000
9.87095597,-78.46308000
9.87351597,-78.46308000
9.87607597,-78.46308000
9.87863597,-78.46308000
9.88119597,-78.46308000
9.88375597,-78.46308000
9.88631597,-78.46308000
9.88887597,-78.46308000
9.89143597,-78.46308000
9.89399597,-78.46308000
9.89655597,-78.46308000
9.89911597,-78.46308000
9.90167597,-78.46308000
9.90423597,-78.46308000
9.90679597,-78.46308000
9.90935597,-78.46308000
9.91191597,-78.46308000
9.91447597,-78.46308000
9.91703597,-78.46308000
9.91959597,-78.46308000
9.92215597,-78.46308000
9.92471597,-78.46308000
9.92727597,-78.46308000
9.92983597,-78.46308000
9.93239597,-78.46308000
9.93495597,-78.46308000
9.93751597,-78.46308000
9.94007597,-78.46308000
9.94263597,-78.46308000
9.94519597,-78.46308000
9.94775597,-78.46308000
9.95031597,-78.46308000
9.95287597,-78.46308000
9.95543597,-78.46308000
9.95799597,-78.46308000
9.96055597,-78.46308000
9.96311597,-78.46308000
9.96567597,-78.46308000
9.96823597,-78.46308000
9.97079597,-78.46308000
9.97335597,-78.46308000
9.97591597,-78.46308000
9.97847597,-78.46308000
9.98103597,-78.46308000
9.98359597,-78.46308000
9.98615597,-78.46308000
9.98871597,-78.46308000
9.99127597,-78.46308000
9.99383597,-78.46308000
9.99639597,-78.46308000
9.99895597,-78.46308000
10.00151597,-78.46308000
10.00407597,-78.46308000
10.00663597,-78.46308000
10.00919597,-78.46308000
10.01175597,-78.46308000
10.01431597,-78.46308000
10.01687597,-78.46308000
10.01943597,-78.46308000
10.02199597,-78.46308000
10.02455597,-78.46308000
10.02711597,-78.46308000
10.02967597,-78.46308000
10.03223597,-78.46308000
10.03479597,-78.46308000
10.03735597,-78.46308000
10.03991597,-78.46308000
10.04247597,-78.46308000
10.04503597,-78.46308000
10.04759597,-78.46308000
10.05015597,-78.46308000
10.05271597,-78.46308000
10.05527597,-78.46308000
10.05783597,-78.46308000
10.06039597,-78.46308000
10.06295597,-78.46308000
10.06551597,-78.46308000
10.06807597,-78.46308000
10.07063597,-78.46308000
10.07319597,-78.46308000
10.07575597,-78.46308000
10.07831597,-78.46308000
10.08087597,-78.46308000
10.08343597,-78.46308000
10.08599597,-78.46308000
10.08855597,-78.46308000
10.09111597,-78.46308000
10.09367597,-78.46308000
10.09623597,-78.46308000
10.09879597,-78.46308000
10.10135597,-78.46308000
10.10391597,-78.46308000
10.10647597,-78.46308000
10.10903597,-78.46308000
10.11159597,-78.46308000
10.11415597,-78.46308000
10.11671597,-78.46308000
10.11927597,-78.46308000
10.12183597,-78.46308000
10.12439597,-78.46308000
10.12695597,-78.46308000
10.12951597,-78.46308000
10.13207597,-78.46308000
10.13463597,-78.46308000
10.13719597,-78.46308000
10.13975597,-78.46308000
10.14231597,-78.46308000
10.14487597,-78.46308000
10.14743597,-78.46308000
10.14999597,-78.46308000
10.15255597,-78.46308000
10.15511597,-78.46308000
10.15767597,-78.46308000
10.16023597,-78.46308000
10.16279597,-78.46308000
10.16535597,-78.46308000
10.16791597,-78.46308000
10.17047597,-78.46308000
10.17303597,-78.46308000
10.17559597,-78.46308000
10.17815597,-78.46308000
10.18071597,-78.46308000
10.18327597,-78.46308000
10.18583597,-78.46308000
10.18839597,-78.46308000
10.19095597,-78.46308000
10.19351597,-78.46308000
10.19607597,-78.46308000
10.19863597,-78.46308000
10.20119597,-78.46308000
10.20375597,-78.46308000
10.20631597,-78.46308000
10.20887597,-78.46308000
10.21143597,-78.46308000
10.21399597,-78.46308000
10.21655597,-78.46308000
10.21911597,-78.46308000
10.22167597,-78.46308000
10.22423597,-78.46308000
10.22679597,-78.46308000
10.22935597,-78.46308000
10.23191597,-78.46308000
10.23447597,-78.46308000
10.23703597,-78.46308000
10.23959597,-78.46308000
10.24215597,-78.46308000
10.24471597,-78.46308000
10.24727597,-78.46308000
10.24983597,-78.46308000
10.25239597,-78.46308000
10.25495597,-78.46308000
10.25751597,-78.46308000
10.26007597,-78.46308000
10.26263597,-78.46308000
10.26519597,-78.46308000
10.26775597,-78.46308000
10.27031597,-78.46308000
10.27287597,-78.46308000
10.27543597,-78.46308000
10.27799597,-78.46308000
10.28055597,-78.46308000
10.28311597,-78.46308000
10.28567597,-78.46308000
10.28823597,-78.46308000
10.29079597,-78.46308000
10.29335597,-78.46308000
10.29591597,-78.46308000
10.29847597,-78.46308000
10.30103597,-78.46308000
10.30359597,-78.46308000
10.30615597,-78.46308000
10.30871597,-78.46308000
10.31127597,-78.46308000
10.31383597,-78.46308000
10.31639597,-78.46308000
10.31895597,-78.46308000
10.32151597,-78.46308000
10.32407597,-78.46308000
10.32663597,-78.46308000
10.32919597,-78.46308000
10.33175597,-78.46308000
10.33431597,-78.46308000
10.33687597,-78.46308000
10.33943597,-78.46308000
10.34199597,-78.46308000
10.34455597,-78.46308000
10.34711597,-78.46308000
10.34967597,-78.46308000
10.35223597,-78.46308000
10.35479597,-78.46308000
10.35735597,-78.46308000
10.35991597,-78.46308000
10.36247597,-78.46308000
10.36503597,-73.99212000
10.36759597,-78.46308000
10.37015597,-78.46308000
10.37271597,-78.46308000
10.37527597,-78.46308000
10.37783597,-78.46308000
10.38039597,-78.46308000
10.38295597,-78.46308000
10.38551597,-78.46308000
10.38807597,-78.46308000
10.39063597,-73.99212000
10.39319597,-73.99212000
10.39575597,-78.46308000
10.39831597,-78.46308000
10.40087597,-73.99212000
10.40343597,-73.99212000
10.40599597,-73.99212000
10.40855597,-73.99212000
10.41111597,-73.99212000
10.41367597,-78.46308000
10.41623597,-73.99212000
10.41879597,-78.46308000
10.42135597,-73.99212000
10.42391597,-78.46308000
10.42647597,-73.99212000
10.42903597,-73.99212000
10.43159597,-73.99212000
10.43415597,-78.46308000
10.43671597,-78.46308000
10.43927597,-73.99212000
10.44183597,-73.99212000
10.44439597,-73.99212000
10.44695597,-73.99212000
10.44951597,-73.99212000
10.45207597,-73.99212000
10.45463597,-73.99212000
10.45719597,-73.99212000
10.45975597,-78.46308000
10.46231597,-73.99212000
10.46487597,-73.99212000
10.46743597,-73.99212000
10.46999597,-73.99212000
10.47255597,-73.99212000
10.47511597,-73.99212000
10.47767597,-73.99212000
10.48023597,-73.99212000
10.48279597,-73.99212000
10.48535597,-73.99212000
10.48791597,-73.99212000
10.49047597,-73.99212000
10.49303597,-73.99212000
10.49559597,-73.99212000
10.49815597,-78.46308000
10.50071597,-73.99212000
10.50327597,-78.46308000
10.50583597,-73.99212000
10.50839597,-73.99212000
10.51095597,-73.99212000
10.51351597,-73.99212000
10.51607597,-73.99212000
10.51863597,-73.99212000
10.52119597,-73.99212000
10.52375597,-73.99212000
10.52631597,-73.99212000
10.52887597,-73.99212000
10.53143597,-73.99212000
10.53399597,-78.46308000
10.53655597,-69.50591000
10.53911597,-78.46308000
10.54167597,-73.99212000
10.54423597,-73.99212000
10.54679597,-73.99212000
10.54935597,-78.46308000
10.55191597,-78.46308000
10.55447597,-73.99212000
10.55703597,-73.99212000
10.55959597,-73.99212000
10.56215597,-78.46308000
10.56471597,-73.99212000
10.56727597,-78.46308000
10.56983597,-73.99212000
10.57239597,-73.99212000
10.57495597,-73.99212000
10.57751597,-73.99212000
10.58007597,-78.46308000
10.58263597,-73.99212000
10.58519597,-73.99212000
10.58775597,-78.46308000
10.59031597,-78.46308000
10.59287597,-78.46308000
10.59543597,-78.46308000
10.59799597,-78.46308000
10.60055597,-78.46308000
10.60311597,-78.46308000
10.60567597,-73.99212000
10.60823597,-78.46308000
10.61079597,-78.46308000
10.61335597,-78.46308000
10.61591597,-78.46308000
10.61847597,-78.46308000
10.62103597,-78.46308000
10.62359597,-78.46308000
10.62615597,-78.46308000
10.62871597,-78.46308000
10.63127597,-78.46308000
10.63383597,-78.46308000
10.63639597,-78.46308000
10.63895597,-78.46308000
10.64151597,-78.46308000
10.64407597,-78.46308000
10.64663597,-78.46308000
10.64919597,-78.46308000
10.65175597,-78.46308000
10.65431597,-78.46308000
10.65687597,-78.46308000
10.65943597,-78.46308000
10.66199597,-78.46308000
10.66455597,-78.46308000
10.66711597,-78.46308000
10.66967597,-78.46308000
10.67223597,-78.46308000
10.67479597,-78.46308000
10.67735597,-78.46308000
10.67991597,-78.46308000
10.68247597,-78.46308000
10.68503597,-78.46308000
10.68759597,-78.46308000
10.69015597,-78.46308000
10.69271597,-78.46308000
10.69527597,-78.46308000
10.69783597,-78.46308000
10.70039597,-78.46308000
10.70295597,-78.46308000
10.70551597,-78.46308000
10.70807597,-78.46308000
10.71063597,-78.46308000
10.71319597,-73.99212000
10.71575597,-73.99212000
10.71831597,-78.46308000
10.72087597,-78.46308000
10.72343597,-73.99212000
10.72599597,-78.46308000
10.72855597,-78.46308000
10.73111597,-73.99212000
10.73367597,-73.99212000
10.73623597,-73.99212000
10.73879597,-69.50591000
10.74135597,-73.99212000
10.74391597,-78.46308000
10.74647597,-78.46308000
10.74903597,-78.46308000
10.75159597,-78.46308000
10.75415597,-78.46308000
10.75671597,-73.99212000
10.75927597,-73.99212000
10.76183597,-78.46308000
10.76439597,-73.99212000
10.76695597,-69.50591000
10.76951597,-73.99212000
10.77207597,-73.99212000
10.77463597,-78.46308000
10.77719597,-73.99212000
10.77975597,-73.99212000
10.78231597,-73.99212000
10.78487597,-78.46308000
10.78743597,-73.99212000
10.78999597,-78.46308000
10.79255597,-73.99212000
10.79511597,-73.99212000
10.79767597,-73.99212000
10.80023597,-78.46308000
10.80279596,-78.46308000
10.80535596,-73.99212000
10.80791596,-73.99212000
10.81047596,-73.99212000
10.81303596,-78.46308000
10.81559596,-73.99212000
10.81815596,-78.46308000
10.82071596,-73.99212000
10.82327596,-73.99212000
10.82583596,-73.99212000
10.82839596,-73.99212000
10.83095596,-78.46308000
10.83351596,-73.99212000
10.83607596,-73.99212000
10.83863596,-73.99212000
10.84119596,-73.99212000
10.84375596,-73.99212000
10.84631596,-73.99212000
10.84887596,-73.99212000
10.85143596,-73.99212000
10.85399596,-73.99212000
10.85655596,-73.99212000
10.85911596,-73.99212000
10.86167596,-73.99212000
10.86423596,-73.99212000
10.86679596,-73.99212000
10.86935596,-78.46308000
10.87191596,-73.99212000
10.87447596,-78.46308000
10.87703596,-73.99212000
10.87959596,-78.46308000
10.88215596,-73.99212000
10.88471596,-73.99212000
10.88727596,-73.99212000
10.88983596,-73.99212000
10.89239596,-73.99212000
10.89495596,-73.99212000
10.89751596,-73.99212000
10.90007596,-73.99212000
10.90263596,-73.99212000
10.90519596,-73.99212000
10.90775596,-73.99212000
10.91031596,-73.99212000
10.91287596,-73.99212000
10.91543596,-73.99212000
10.91799596,-73.99212000
10.92055596,-73.99212000
10.92311596,-73.99212000
10.92567596,-73.99212000
10.92823596,-78.46308000
10.93079596,-73.99212000
10.93335596,-73.99212000
10.93591596,-73.99212000
10.93847596,-73.99212000
10.94103596,-78.46308000
10.94359596,-73.99212000
10.94615596,-78.46308000
10.94871596,-73.99212000
10.95127596,-73.99212000
10.95383596,-78.46308000
10.95639596,-73.99212000
10.95895596,-73.99212000
10.96151596,-73.99212000
10.96407596,-78.46308000
10.96663596,-78.46308000
10.96919596,-78.46308000
10.97175596,-73.99212000
10.97431596,-78.46308000
10.97687596,-73.99212000
10.97943596,-78.46308000
10.98199596,-78.46308000
10.98455596,-73.99212000
10.98711596,-73.99212000
10.98967596,-73.99212000
10.99223596,-78.46308000
10.99479596,-78.46308000
10.99735596,-78.46308000
10.99991596,-78.46308000
11.00247596,-73.99212000
11.00503596,-78.46308000
11.00759596,-78.46308000
11.01015596,-73.99212000
11.01271596,-78.46308000
11.01527596,-78.46308000
11.01783596,-78.46308000
11.02039596,-73.99212000
11.02295596,-73.99212000
11.02551596,-78.46308000
11.02807596,-78.46308000
11.03063596,-78.46308000
11.03319596,-78.46308000
11.03575596,-78.46308000
11.03831596,-78.46308000
11.04087596,-73.99212000
11.04343596,-78.46308000
11.04599596,-78.46308000
11.04855596,-78.46308000
11.05111596,-78.46308000
11.05367596,-78.46308000
11.05623596,-78.46308000
11.05879596,-73.99212000
11.06135596,-78.46308000
11.06391596,-73.99212000
11.06647596,-78.46308000
11.06903596,-78.46308000
11.07159596,-78.46308000
11.07415596,-78.46308000
11.07671596,-78.46308000
11.07927596,-78.46308000
11.08183596,-78.46308000
11.08439596,-78.46308000
11.08695596,-78.46308000
11.08951596,-78.46308000
11.09207596,-78.46308000
11.09463596,-78.46308000
11.09719596,-78.46308000
11.09975596,-78.46308000
11.10231596,-78.46308000
11.10487596,-78.46308000
11.10743596,-78.46308000
11.10999596,-73.99212000
11.11255596,-78.46308000
11.11511596,-78.46308000
11.11767596,-78.46308000
11.12023596,-78.46308000
11.12279596,-78.46308000
11.12535596,-78.46308000
11.12791596,-78.46308000
11.13047596,-78.46308000
11.13303596,-78.46308000
11.13559596,-78.46308000
11.13815596,-78.46308000
11.14071596,-78.46308000
11.14327596,-78.46308000
11.14583596,-78.46308000
11.14839596,-78.46308000
11.15095596,-78.46308000
11.15351596,-78.46308000
11.15607596,-78.46308000
11.15863596,-78.46308000
11.16119596,-78.46308000
11.16375596,-78.46308000
11.16631596,-78.46308000
11.16887596,-78.46308000
11.17143596,-78.46308000
11.17399596,-78.46308000
11.17655596,-78.46308000
11.17911596,-78.46308000
11.18167596,-78.46308000
11.18423596,-78.46308000
11.18679596,-78.46308000
11.18935596,-78.46308000
11.19191596,-78.46308000
11.19447596,-78.46308000
11.19703596,-78.46308000
11.19959596,-78.46308000
11.20215596,-78.46308000
11.20471596,-78.46308000
11.20727596,-78.46308000
11.20983596,-78.46308000
11.21239596,-78.46308000
11.21495596,-78.46308000
11.21751596,-78.46308000
11.22007596,-78.46308000
11.22263596,-78.46308000
11.22519596,-78.46308000
11.22775596,-78.46308000
11.23031596,-78.46308000
11.23287596,-78.46308000
11.23543596,-78.46308000
11.23799596,-78.46308000
11.24055596,-78.46308000
11.24311596,-78.46308000
11.24567596,-78.46308000
11.24823596,-78.46308000
11.25079596,-78.46308000
11.25335596,-78.46308000
11.25591596,-78.46308000
11.25847596,-78.46308000
11.26103596,-78.46308000
11.26359596,-78.46308000
11.26615596,-78.46308000
11.26871596,-78.46308000
11.27127596,-78.46308000
11.27383596,-78.46308000
11.27639596,-78.46308000
11.27895596,-78.46308000
11.28151596,-78.46308000
11.28407596,-78.46308000
11.28663596,-78.46308000
11.28919596,-78.46308000
11.29175596,-78.46308000
11.29431596,-78.46308000
11.29687596,-78.46308000
11.29943596,-78.46308000
11.30199596,-78.46308000
11.30455596,-78.46308000
11.30711596,-78.46308000
11.30967596,-78.46308000
11.31223596,-78.46308000
11.31479596,-78.46308000
11.31735596,-78.46308000
11.31991596,-78.46308000
11.32247596,-78.46308000
11.32503596,-78.46308000
11.32759596,-78.46308000
11.33015596,-78.46308000
11.33271596,-78.46308000
11.33527596,-78.46308000
11.33783596,-78.46308000
11.34039596,-78.46308000
11.34295596,-78.46308000
11.34551596,-78.46308000
11.34807596,-78.46308000
11.35063596,-78.46308000
11.35319596,-78.46308000
11.35575596,-78.46308000
11.35831596,-78.46308000
11.36087596,-73.99212000
11.36343596,-78.46308000
11.36599596,-78.46308000
11.36855596,-78.46308000
11.37111596,-78.46308000
11.37367596,-73.99212000
11.37623596,-78.46308000
11.37879596,-78.46308000
11.38135596,-73.99212000
11.38391596,-73.99212000
11.38647596,-78.46308000
11.38903596,-78.46308000
11.39159596,-78.46308000
11.39415596,-78.46308000
11.39671596,-73.99212000
11.39927596,-73.99212000
11.40183596,-78.46308000
11.40439596,-78.46308000
11.40695596,-73.99212000
11.40951596,-73.99212000
11.41207596,-73.99212000
11.41463596,-78.46308000
11.41719596,-78.46308000
11.41975596,-78.46308000
11.42231596,-78.46308000
11.42487596,-73.99212000
11.42743596,-78.46308000
11.42999596,-73.99212000
11.43255596,-78.46308000
11.43511596,-78.46308000
11.43767596,-73.99212000
11.44023596,-73.99212000
11.44279596,-78.46308000
11.44535596,-78.46308000
11.44791596,-73.99212000
11.45047596,-73.99212000
11.45303596,-73.99212000
11.45559596,-78.46308000
11.45815596,-73.99212000
11.46071596,-73.99212000
11.46327596,-78.46308000
11.46583596,-73.99212000
11.46839596,-73.99212000
11.47095596,-73.99212000
11.47351596,-73.99212000
11.47607596,-78.46308000
11.47863596,-78.46308000
11.48119596,-78.46308000
11.48375596,-78.46308000
11.48631596,-78.46308000
11.48887596,-73.99212000
11.49143596,-73.99212000
11.49399596,-78.46308000
11.49655596,-73.99212000
11.49911596,-78.46308000
11.50167596,-78.46308000
11.50423596,-73.99212000
11.50679596,-78.46308000
11.50935596,-73.99212000
11.51191596,-73.99212000
11.51447596,-73.99212000
11.51703596,-73.99212000
11.51959596,-78.46308000
11.52215596,-78.46308000
11.52471596,-73.99212000
11.52727596,-73.99212000
11.52983596,-73.99212000
11.53239596,-69.50591000
11.53495596,-73.99212000
11.53751596,-73.99212000
11.54007596,-73.99212000
11.54263596,-73.99212000
11.54519596,-73.99212000
11.54775596,-73.99212000
11.55031596,-73.99212000
11.55287596,-73.99212000
11.55543596,-73.99212000
11.55799596,-73.99212000
11.56055596,-73.99212000
11.56311596,-73.99212000
11.56567596,-73.99212000
11.56823596,-73.99212000
11.57079596,-78.46308000
11.57335596,-73.99212000
11.57591596,-73.99212000
11.57847596,-73.99212000
11.58103596,-73.99212000
11.58359596,-73.99212000
11.58615596,-73.99212000
11.58871596,-73.99212000
11.59127596,-73.99212000
11.59383596,-73.99212000
11.59639596,-78.46308000
11.59895596,-78.46308000
11.60151596,-78.46308000
11.60407596,-73.99212000
11.60663596,-78.46308000
11.60919596,-78.46308000
11.61175596,-78.46308000
11.61431596,-73.99212000
11.61687596,-73.99212000
11.61943596,-73.99212000
11.62199596,-73.99212000
11.62455596,-73.99212000
11.62711596,-78.46308000
11.62967596,-73.99212000
11.63223596,-78.46308000
11.63479596,-73.99212000
11.63735596,-78.46308000
11.63991596,-78.46308000
11.64247596,-78.46308000
11.64503596,-78.46308000
11.64759596,-78.46308000
11.65015596,-78.46308000
11.65271596,-73.99212000
11.65527596,-78.46308000
11.65783596,-78.46308000
11.66039596,-73.99212000
11.66295596,-78.46308000
11.66551596,-73.99212000
11.66807596,-78.46308000
11.67063596,-78.46308000
11.67319596,-73.99212000
11.67575596,-78.46308000
11.67831596,-78.46308000
11.68087596,-73.99212000
11.68343596,-78.46308000
11.68599596,-73.99212000
11.68855596,-73.99212000
11.69111596,-78.46308000
11.69367596,-78.46308000
11.69623596,-73.99212000
11.69879596,-78.46308000
11.70135596,-73.99212000
11.70391596,-73.99212000
11.70647596,-78.46308000
11.70903596,-78.46308000
11.71159596,-78.46308000
11.71415596,-73.99212000
11.71671596,-73.99212000
11.71927596,-78.46308000
11.72183596,-73.99212000
11.72439596,-73.99212000
11.72695596,-78.46308000
11.72951596,-73.99212000
11.73207596,-78.46308000
11.73463596,-73.99212000
11.73719596,-73.99212000
11.73975596,-73.99212000
11.74231596,-78.46308000
11.74487596,-73.99212000
11.74743596,-73.99212000
11.74999596,-73.99212000
11.75255596,-73.99212000
11.75511596,-73.99212000
11.75767596,-73.99212000
11.76023596,-73.99212000
11.76279596,-73.99212000
11.76535596,-73.99212000
11.76791596,-73.99212000
11.77047596,-69.50591000
11.77303596,-73.99212000
11.77559596,-73.99212000
11.77815596,-78.46308000
11.78071596,-73.99212000
11.78327596,-73.99212000
11.78583596,-73.99212000
11.78839596,-73.99212000
11.79095596,-73.99212000
11.79351596,-73.99212000
11.79607596,-73.99212000
11.79863596,-73.99212000
11.80119596,-73.99212000
11.80375596,-73.99212000
11.80631596,-73.99212000
11.80887596,-73.99212000
11.81143596,-73.99212000
11.81399596,-73.99212000
11.81655596,-73.99212000
11.81911596,-73.99212000
11.82167596,-69.50591000
11.82423596,-73.99212000
11.82679596,-73.99212000
11.82935596,-69.50591000
11.83191596,-73.99212000
11.83447596,-73.99212000
11.83703596,-73.99212000
11.83959596,-73.99212000
11.84215596,-73.99212000
11.84471596,-73.99212000
11.84727596,-69.50591000
11.84983596,-73.99212000
11.85239596,-73.99212000
11.85495596,-73.99212000
11.85751596,-73.99212000
11.86007596,-73.99212000
11.86263596,-69.50591000
11.86519596,-73.99212000
11.86775596,-73.99212000
11.87031596,-73.99212000
11.87287596,-73.99212000
11.87543596,-69.50591000
11.87799596,-73.99212000
11.88055596,-69.50591000
11.88311596,-73.99212000
11.88567596,-73.99212000
11.88823596,-73.99212000
11.89079596,-73.99212000
11.89335596,-73.99212000
11.89591596,-73.99212000
11.89847596,-73.99212000
11.90103596,-73.99212000
11.90359596,-73.99212000
11.90615596,-69.50591000
11.90871596,-69.50591000
11.91127596,-73.99212000
11.91383596,-73.99212000
11.91639596,-73.99212000
11.91895596,-73.99212000
11.92151596,-73.99212000
11.92407596,-73.99212000
11.92663596,-73.99212000
11.92919596,-73.99212000
11.93175596,-69.50591000
11.93431596,-69.50591000
11.93687596,-69.50591000
11.93943596,-73.99212000
11.94199596,-73.99212000
11.94455596,-73.99212000
11.94711596,-69.50591000
11.94967596,-73.99212000
11.95223596,-73.99212000
11.95479596,-69.50591000
11.95735596,-69.50591000
11.95991596,-73.99212000
11.96247596,-69.50591000
11.96503596,-73.99212000
11.96759596,-73.99212000
11.97015596,-73.99212000
11.97271596,-73.99212000
11.97527596,-73.99212000
11.97783596,-73.99212000
11.98039596,-73.99212000
11.98295596,-69.50591000
11.98551596,-73.99212000
11.98807596,-69.50591000
11.99063596,-73.99212000
11.99319596,-69.50591000
11.99575596,-73.99212000
11.99831596,-73.99212000
12.00087596,-69.50591000
12.00343596,-69.50591000
12.00599596,-73.99212000
12.00855596,-73.99212000
12.01111596,-73.99212000
12.01367596,-69.50591000
12.01623596,-78.46308000
12.01879596,-73.99212000
12.02135596,-73.99212000
12.02391596,-73.99212000
12.02647596,-73.99212000
12.02903596,-78.46308000
12.03159596,-73.99212000
12.03415596,-73.99212000
12.03671596,-73.99212000
12.03927596,-73.99212000
12.04183596,-73.99212000
12.04439596,-73.99212000
12.04695596,-73.99212000
12.04951596,-73.99212000
12.05207596,-73.99212000
12.05463596,-73.99212000
12.05719596,-73.99212000
12.05975596,-73.99212000
12.06231596,-73.99212000
12.06487596,-73.99212000
12.06743596,-78.46308000
12.06999596,-73.99212000
12.07255596,-73.99212000
12.07511596,-73.99212000
12.07767596,-73.99212000
12.08023596,-78.46308000
12.08279596,-73.99212000
12.08535596,-73.99212000
12.08791596,-78.46308000
12.09047596,-69.50591000
12.09303596,-73.99212000
12.09559596,-73.99212000
12.09815596,-78.46308000
12.10071596,-73.99212000
12.10327596,-73.99212000
12.10583596,-73.99212000
12.10839596,-73.99212000
12.11095596,-78.46308000
12.11351596,-73.99212000
12.11607596,-73.99212000
12.11863596,-73.99212000
12.12119596,-73.99212000
12.12375596,-73.99212000
12.12631596,-73.99212000
12.12887596,-73.99212000
12.13143596,-73.99212000
12.13399596,-73.99212000
12.13655596,-73.99212000
12.13911596,-73.99212000
12.14167596,-73.99212000
12.14423596,-78.46308000
12.14679596,-73.99212000
12.14935596,-73.99212000
12.15191596,-73.99212000
12.15447596,-73.99212000
12.15703596,-73.99212000
12.15959596,-73.99212000
12.16215596,-73.99212000
12.16471596,-78.46308000
12.16727596,-73.99212000
12.16983596,-73.99212000
12.17239596,-78.46308000
12.17495596,-73.99212000
12.17751596,-73.99212000
12.18007596,-78.46308000
12.18263596,-78.46308000
12.18519596,-73.99212000
12.18775596,-73.99212000
12.19031596,-73.99212000
12.19287596,-78.46308000
12.19543596,-78.46308000
12.19799596,-73.99212000
12.20055596,-78.46308000
12.20311596,-78.46308000
12.20567596,-73.99212000
12.20823596,-73.99212000
12.21079596,-73.99212000
12.21335596,-78.46308000
12.21591596,-78.46308000
12.21847596,-78.46308000
12.22103596,-78.46308000
12.22359596,-78.46308000
12.22615596,-78.46308000
12.22871596,-73.99212000
12.23127596,-73.99212000
12.23383596,-78.46308000
12.23639596,-73.99212000
12.23895596,-78.46308000
12.24151596,-78.46308000
12.24407596,-78.46308000
12.24663596,-73.99212000
12.24919596,-73.99212000
12.25175596,-78.46308000
12.25431596,-73.99212000
12.25687596,-73.99212000
12.25943596,-73.99212000
12.26199596,-78.46308000
12.26455596,-78.46308000
12.26711596,-78.46308000
12.26967596,-78.46308000
12.27223596,-78.46308000
12.27479596,-78.46308000
12.27735596,-73.99212000
12.27991596,-73.99212000
12.28247596,-73.99212000
12.28503596,-78.46308000
12.28759596,-73.99212000
12.29015596,-78.46308000
12.29271596,-78.46308000
12.29527596,-78.46308000
12.29783596,-73.99212000
12.30039596,-73.99212000
12.30295596,-73.99212000
12.30551596,-73.99212000
12.30807596,-78.46308000
12.31063596,-73.99212000
12.31319596,-78.46308000
12.31575596,-78.46308000
12.31831596,-73.99212000
12.32087596,-73.99212000
12.32343596,-78.46308000
12.32599596,-78.46308000
12.32855596,-73.99212000
12.33111596,-78.46308000
12.33367596,-73.99212000
12.33623596,-73.99212000
12.33879596,-78.46308000
12.34135596,-78.46308000
12.34391596,-78.46308000
12.34647596,-78.46308000
12.34903596,-78.46308000
12.35159596,-78.46308000
12.35415596,-73.99212000
12.35671596,-78.46308000
12.35927596,-78.46308000
12.36183596,-73.99212000
12.36439596,-78.46308000
12.36695596,-78.46308000
12.36951596,-78.46308000
12.37207596,-78.46308000
12.37463596,-78.46308000
12.37719596,-78.46308000
12.37975596,-78.46308000
12.38231596,-73.99212000
12.38487596,-78.46308000
12.38743596,-78.46308000
12.38999596,-78.46308000
12.39255596,-73.99212000
12.39511596,-73.99212000
12.39767596,-78.46308000
12.40023596,-78.46308000
12.40279596,-73.99212000
12.40535596,-73.99212000
12.40791596,-78.46308000
12.41047596,-78.46308000
12.41303596,-73.99212000
12.41559596,-78.46308000
12.41815596,-78.46308000
12.42071596,-78.46308000
12.42327596,-78.46308000
12.42583596,-78.46308000
12.42839596,-73.99212000
12.43095596,-73.99212000
12.43351596,-78.46308000
12.43607596,-78.46308000
12.43863596,-73.99212000
12.44119596,-73.99212000
12.44375596,-78.46308000
12.44631596,-78.46308000
12.44887595,-73.99212000
12.45143595,-78.46308000
12.45399595,-78.46308000
12.45655595,-73.99212000
12.45911595,-73.99212000
12.46167595,-78.46308000
12.46423595,-78.46308000
12.46679595,-78.46308000
12.46935595,-78.46308000
12.47191595,-78.46308000
12.47447595,-78.46308000
12.47703595,-73.99212000
12.47959595,-78.46308000
12.48215595,-78.46308000
12.48471595,-73.99212000
12.48727595,-73.99212000
12.48983595,-78.46308000
12.49239595,-73.99212000
12.49495595,-78.46308000
12.49751595,-73.99212000
12.50007595,-73.99212000
12.50263595,-73.99212000
12.50519595,-78.46308000
12.50775595,-78.46308000
12.51031595,-78.46308000
12.51287595,-73.99212000
12.51543595,-73.99212000
12.51799595,-73.99212000
12.52055595,-73.99212000
12.52311595,-73.99212000
12.52567595,-73.99212000
12.52823595,-69.50591000
12.53079595,-73.99212000
12.53335595,-73.99212000
12.53591595,-78.46308000
12.53847595,-78.46308000
12.54103595,-73.99212000
12.54359595,-73.99212000
12.54615595,-73.99212000
12.54871595,-73.99212000
12.55127595,-73.99212000
12.55383595,-73.99212000
12.55639595,-73.99212000
12.55895595,-73.99212000
12.56151595,-73.99212000
12.56407595,-73.99212000
12.56663595,-73.99212000
12.56919595,-73.99212000
12.57175595,-78.46308000
12.57431595,-73.99212000
12.57687595,-73.99212000
12.57943595,-73.99212000
12.58199595,-73.99212000
12.58455595,-73.99212000
12.58711595,-73.99212000
12.58967595,-73.99212000
12.59223595,-73.99212000
12.59479595,-73.99212000
12.59735595,-73.99212000
12.59991595,-73.99212000
12.60247595,-73.99212000
12.60503595,-69.50591000
12.60759595,-73.99212000
12.61015595,-78.46308000
12.61271595,-73.99212000
12.61527595,-73.99212000
12.61783595,-73.99212000
12.62039595,-73.99212000
12.62295595,-73.99212000
12.62551595,-73.99212000
12.62807595,-73.99212000
12.63063595,-73.99212000
12.63319595,-73.99212000
12.63575595,-73.99212000
12.63831595,-73.99212000
12.64087595,-73.99212000
12.64343595,-73.99212000
12.64599595,-78.46308000
12.64855595,-73.99212000
12.65111595,-73.99212000
12.65367595,-73.99212000
12.65623595,-73.99212000
12.65879595,-73.99212000
12.66135595,-73.99212000
12.66391595,-78.46308000
12.66647595,-73.99212000
12.66903595,-73.99212000
12.67159595,-69.50591000
12.67415595,-73.99212000
12.67671595,-73.99212000
12.67927595,-78.46308000
12.68183595,-73.99212000
12.68439595,-73.99212000
12.68695595,-73.99212000
12.68951595,-73.99212000
12.69207595,-73.99212000
12.69463595,-73.99212000
12.69719595,-78.46308000
12.69975595,-73.99212000
12.70231595,-73.99212000
12.70487595,-73.99212000
12.70743595,-73.99212000
12.70999595,-78.46308000
12.71255595,-78.46308000
12.71511595,-73.99212000
12.71767595,-78.46308000
12.72023595,-73.99212000
12.72279595,-73.99212000
12.72535595,-73.99212000
12.72791595,-78.46308000
12.73047595,-73.99212000
12.73303595,-78.46308000
12.73559595,-78.46308000
12.73815595,-73.99212000
12.74071595,-69.50591000
12.74327595,-73.99212000
12.74583595,-73.99212000
12.74839595,-78.46308000
12.75095595,-73.99212000
12.75351595,-78.46308000
12.75607595,-73.99212000
12.75863595,-73.99212000
12.76119595,-73.99212000
12.76375595,-73.99212000
12.76631595,-73.99212000
12.76887595,-73.99212000
12.77143595,-73.99212000
12.77399595,-73.99212000
12.77655595,-73.99212000
12.77911595,-78.46308000
12.78167595,-73.99212000
12.78423595,-73.99212000
12.78679595,-78.46308000
12.78935595,-73.99212000
12.79191595,-78.46308000
12.79447595,-73.99212000
12.79703595,-73.99212000
12.79959595,-78.46308000
12.80215595,-73.99212000
12.80471595,-73.99212000
12.80727595,-73.99212000
12.80983595,-73.99212000
12.81239595,-73.99212000
12.81495595,-73.99212000
12.81751595,-73.99212000
12.82007595,-73.99212000
12.82263595,-73.99212000
12.82519595,-73.99212000
12.82775595,-73.99212000
12.83031595,-73.99212000
12.83287595,-73.99212000
12.83543595,-73.99212000
12.83799595,-73.99212000
12.84055595,-73.99212000
12.84311595,-73.99212000
12.84567595,-73.99212000
12.84823595,-73.99212000
12.85079595,-73.99212000
12.85335595,-73.99212000
12.85591595,-73.99212000
12.85847595,-73.99212000
12.86103595,-73.99212000
12.86359595,-73.99212000
12.86615595,-73.99212000
12.86871595,-73.99212000
12.87127595,-73.99212000
12.87383595,-78.46308000
12.87639595,-78.46308000
12.87895595,-73.99212000
12.88151595,-73.99212000
12.88407595,-73.99212000
12.88663595,-73.99212000
12.88919595,-73.99212000
12.89175595,-73.99212000
12.89431595,-73.99212000
12.89687595,-73.99212000
12.89943595,-69.50591000
12.90199595,-73.99212000
12.90455595,-73.99212000
12.90711595,-73.99212000
12.90967595,-73.99212000
12.91223595,-78.46308000
12.91479595,-73.99212000
12.91735595,-69.50591000
12.91991595,-73.99212000
12.92247595,-73.99212000
12.92503595,-69.50591000
12.92759595,-73.99212000
12.93015595,-73.99212000
12.93271595,-73.99212000
12.93527595,-73.99212000
12.93783595,-73.99212000
12.94039595,-73.99212000
12.94295595,-73.99212000
12.94551595,-73.99212000
12.94807595,-73.99212000
12.95063595,-73.99212000
12.95319595,-73.99212000
12.95575595,-73.99212000
12.95831595,-73.99212000
12.96087595,-73.99212000
12.96343595,-73.99212000
12.96599595,-73.99212000
12.96855595,-73.99212000
12.97111595,-73.99212000
12.97367595,-73.99212000
12.97623595,-73.99212000
12.97879595,-73.99212000
12.98135595,-73.99212000
12.98391595,-73.99212000
12.98647595,-73.99212000
12.98903595,-73.99212000
12.99159595,-78.46308000
12.99415595,-73.99212000
12.99671595,-73.99212000
12.99927595,-73.99212000
13.00183595,-73.99212000
13.00439595,-73.99212000
13.00695595,-73.99212000
13.00951595,-73.99212000
13.01207595,-73.99212000
13.01463595,-73.99212000
13.01719595,-78.46308000
13.01975595,-78.46308000
13.02231595,-73.99212000
13.02487595,-78.46308000
13.02743595,-73.99212000
13.02999595,-73.99212000
13.03255595,-73.99212000
13.03511595,-73.99212000
13.03767595,-73.99212000
13.04023595,-78.46308000
13.04279595,-73.99212000
13.04535595,-78.46308000
13.04791595,-73.99212000
13.05047595,-73.99212000
13.05303595,-73.99212000
13.05559595,-78.46308000
13.05815595,-73.99212000
13.06071595,-73.99212000
13.06327595,-73.99212000
13.06583595,-73.99212000
13.06839595,-78.46308000
13.07095595,-78.46308000
13.07351595,-73.99212000
13.07607595,-73.99212000
13.07863595,-78.46308000
13.08119595,-69.50591000
13.08375595,-73.99212000
13.08631595,-73.99212000
13.08887595,-73.99212000
13.09143595,-73.99212000
13.09399595,-73.99212000
13.09655595,-73.99212000
13.09911595,-73.99212000
13.10167595,-78.46308000
13.10423595,-73.99212000
13.10679595,-73.99212000
13.10935595,-73.99212000
13.11191595,-73.99212000
13.11447595,-78.46308000
13.11703595,-73.99212000
13.11959595,-73.99212000
13.12215595,-73.99212000
13.12471595,-73.99212000
13.12727595,-73.99212000
13.12983595,-73.99212000
13.13239595,-73.99212000
13.13495595,-73.99212000
13.13751595,-73.99212000
13.14007595,-78.46308000
13.14263595,-73.99212000
13.14519595,-73.99212000
13.14775595,-73.99212000
13.15031595,-73.99212000
13.15287595,-73.99212000
13.15543595,-78.46308000
13.15799595,-73.99212000
13.16055595,-73.99212000
13.16311595,-73.99212000
13.16567595,-73.99212000
13.16823595,-73.99212000
13.17079595,-78.46308000
13.17335595,-73.99212000
13.17591595,-73.99212000
13.17847595,-73.99212000
13.18103595,-73.99212000
13.18359595,-73.99212000
13.18615595,-73.99212000
13.18871595,-73.99212000
13.19127595,-73.99212000
13.19383595,-73.99212000
13.19639595,-73.99212000
13.19895595,-78.46308000
13.20151595,-73.99212000
13.20407595,-73.99212000
13.20663595,-73.99212000
13.20919595,-73.99212000
13.21175595,-73.99212000
13.21431595,-73.99212000
13.21687595,-73.99212000
13.21943595,-69.50591000
13.22199595,-73.99212000
13.22455595,-73.99212000
13.22711595,-73.99212000
13.22967595,-73.99212000
13.23223595,-73.99212000
13.23479595,-73.99212000
13.23735595,-78.46308000
13.23991595,-73.99212000
13.24247595,-73.99212000
13.24503595,-73.99212000
13.24759595,-73.99212000
13.25015595,-73.99212000
13.25271595,-73.99212000
13.25527595,-78.46308000
13.25783595,-78.46308000
13.26039595,-73.99212000
13.26295595,-78.46308000
13.26551595,-78.46308000
13.26807595,-78.46308000
13.27063595,-78.46308000
13.27319595,-73.99212000
13.27575595,-78.46308000
13.27831595,-78.46308000
13.28087595,-78.46308000
13.28343595,-78.46308000
13.28599595,-78.46308000
13.28855595,-78.46308000
13.29111595,-73.99212000
13.29367595,-78.46308000
13.29623595,-78.46308000
13.29879595,-78.46308000
13.30135595,-78.46308000
13.30391595,-78.46308000
13.30647595,-78.46308000
13.30903595,-78.46308000
13.31159595,-78.46308000
13.31415595,-78.46308000
13.31671595,-78.46308000
13.31927595,-78.46308000
13.32183595,-78.46308000
13.32439595,-73.99212000
13.32695595,-78.46308000
13.32951595,-78.46308000
13.33207595,-78.46308000
13.33463595,-78.46308000
13.33719595,-78.46308000
13.33975595,-78.46308000
13.34231595,-78.46308000
13.34487595,-78.46308000
13.34743595,-78.46308000
13.34999595,-78.46308000
13.35255595,-78.46308000
13.35511595,-78.46308000
13.35767595,-78.46308000
13.36023595,-78.46308000
13.36279595,-78.46308000
13.36535595,-78.46308000
13.36791595,-78.46308000
13.37047595,-73.99212000
13.37303595,-78.46308000
13.37559595,-78.46308000
13.37815595,-78.46308000
13.38071595,-78.46308000
13.38327595,-78.46308000
13.38583595,-78.46308000
13.38839595,-78.46308000
13.39095595,-78.46308000
13.39351595,-78.46308000
13.39607595,-78.46308000
13.39863595,-78.46308000
13.40119595,-78.46308000
13.40375595,-73.99212000
13.40631595,-78.46308000
13.40887595,-78.46308000
13.41143595,-78.46308000
13.41399595,-78.46308000
13.41655595,-78.46308000
13.41911595,-78.46308000
13.42167595,-78.46308000
13.42423595,-78.46308000
13.42679595,-78.46308000
13.42935595,-78.46308000
13.43191595,-78.46308000
13.43447595,-78.46308000
13.43703595,-78.46308000
13.43959595,-78.46308000
13.44215595,-78.46308000
13.44471595,-78.46308000
13.44727595,-73.99212000
13.44983595,-73.99212000
13.45239595,-78.46308000
13.45495595,-78.46308000
13.45751595,-78.46308000
13.46007595,-78.46308000
13.46263595,-78.46308000
13.46519595,-78.46308000
13.46775595,-78.46308000
13.47031595,-78.46308000
13.47287595,-78.46308000
13.47543595,-78.46308000
13.47799595,-78.46308000
13.48055595,-78.46308000
13.48311595,-78.46308000
13.48567595,-78.46308000
13.48823595,-78.46308000
13.49079595,-78.46308000
13.49335595,-78.46308000
13.49591595,-78.46308000
13.49847595,-78.46308000
13.50103595,-78.46308000
13.50359595,-78.46308000
13.50615595,-78.46308000
13.50871595,-78.46308000
13.51127595,-78.46308000
13.51383595,-78.46308000
13.51639595,-78.46308000
13.51895595,-78.46308000
13.52151595,-78.46308000
13.52407595,-78.46308000
13.52663595,-78.46308000
13.52919595,-78.46308000
13.53175595,-78.46308000
13.53431595,-78.46308000
13.53687595,-78.46308000
13.53943595,-78.46308000
13.54199595,-78.46308000
13.54455595,-78.46308000
13.54711595,-78.46308000
13.54967595,-78.46308000
13.55223595,-78.46308000
13.55479595,-78.46308000
13.55735595,-78.46308000
13.55991595,-78.46308000
13.56247595,-78.46308000
13.56503595,-78.46308000
13.56759595,-78.46308000
13.57015595,-78.46308000
13.57271595,-78.46308000
13.57527595,-78.46308000
13.57783595,-78.46308000
13.58039595,-73.99212000
13.58295595,-78.46308000
13.58551595,-78.46308000
13.58807595,-78.46308000
13.59063595,-78.46308000
13.59319595,-78.46308000
13.59575595,-78.46308000
13.59831595,-78.46308000
13.60087595,-78.46308000
13.60343595,-78.46308000
13.60599595,-78.46308000
13.60855595,-78.46308000
13.61111595,-78.46308000
13.61367595,-78.46308000
13.61623595,-78.46308000
13.61879595,-78.46308000
13.62135595,-78.46308000
13.62391595,-78.46308000
13.62647595,-78.46308000
13.62903595,-78.46308000
13.63159595,-78.46308000
13.63415595,-78.46308000
13.63671595,-78.46308000
13.63927595,-78.46308000
13.64183595,-78.46308000
13.64439595,-78.46308000
13.64695595,-78.46308000
13.64951595,-78.46308000
13.65207595,-78.46308000
13.65463595,-78.46308000
13.65719595,-78.46308000
13.65975595,-78.46308000
13.66231595,-78.46308000
13.66487595,-78.46308000
13.66743595,-78.46308000
13.66999595,-78.46308000
13.67255595,-78.46308000
13.67511595,-78.46308000
13.67767595,-78.46308000
13.68023595,-73.99212000
13.68279595,-78.46308000
13.68535595,-78.46308000
13.68791595,-78.46308000
13.69047595,-78.46308000
13.69303595,-78.46308000
13.69559595,-78.46308000
13.69815595,-78.46308000
13.70071595,-73.99212000
13.70327595,-78.46308000
13.70583595,-78.46308000
13.70839595,-78.46308000
13.71095595,-78.46308000
13.71351595,-78.46308000
13.71607595,-78.46308000
13.71863595,-78.46308000
13.72119595,-78.46308000
13.72375595,-73.99212000
13.72631595,-78.46308000
13.72887595,-78.46308000
13.73143595,-73.99212000
13.73399595,-73.99212000
13.73655595,-78.46308000
13.73911595,-78.46308000
13.74167595,-78.46308000
13.74423595,-78.46308000
13.74679595,-78.46308000
13.74935595,-78.46308000
13.75191595,-73.99212000
13.75447595,-78.46308000
13.75703595,-78.46308000
13.75959595,-78.46308000
13.76215595,-78.46308000
13.76471595,-78.46308000
13.76727595,-78.46308000
13.76983595,-78.46308000
13.77239595,-78.46308000
13.77495595,-78.46308000
13.77751595,-78.46308000
13.78007595,-78.46308000
13.78263595,-78.46308000
13.78519595,-78.46308000
13.78775595,-73.99212000
13.79031595,-78.46308000
13.79287595,-78.46308000
13.79543595,-78.46308000
13.79799595,-73.99212000
13.80055595,-78.46308000
13.80311595,-73.99212000
13.80567595,-73.99212000
13.80823595,-78.46308000
13.81079595,-78.46308000
13.81335595,-78.46308000
13.81591595,-78.46308000
13.81847595,-78.46308000
13.82103595,-78.46308000
13.82359595,-78.46308000
13.82615595,-78.46308000
13.82871595,-78.46308000
13.83127595,-78.46308000
13.83383595,-78.46308000
13.83639595,-73.99212000
13.83895595,-73.99212000
13.84151595,-78.46308000
13.84407595,-73.99212000
13.84663595,-73.99212000
13.84919595,-73.99212000
13.85175595,-78.46308000
13.85431595,-73.99212000
13.85687595,-78.46308000
13.85943595,-73.99212000
13.86199595,-78.46308000
13.86455595,-73.99212000
13.86711595,-78.46308000
13.86967595,-78.46308000
13.87223595,-73.99212000
13.87479595,-73.99212000
13.87735595,-73.99212000
13.87991595,-78.46308000
13.88247595,-78.46308000
13.88503595,-78.46308000
13.88759595,-78.46308000
13.89015595,-73.99212000
13.89271595,-78.46308000
13.89527595,-73.99212000
13.89783595,-78.46308000
13.90039595,-78.46308000
13.90295595,-78.46308000
13.90551595,-73.99212000
13.90807595,-78.46308000
13.91063595,-73.99212000
13.91319595,-73.99212000
13.91575595,-73.99212000
13.91831595,-73.99212000
13.92087595,-73.99212000
13.92343595,-78.46308000
13.92599595,-73.99212000
13.92855595,-73.99212000
13.93111595,-73.99212000
13.93367595,-73.99212000
13.93623595,-73.99212000
13.93879595,-78.46308000
13.94135595,-73.99212000
13.94391595,-73.99212000
13.94647595,-78.46308000
13.94903595,-78.46308000
13.95159595,-73.99212000
13.95415595,-73.99212000
13.95671595,-78.46308000
13.95927595,-73.99212000
13.96183595,-78.46308000
13.96439595,-78.46308000
13.96695595,-73.99212000
13.96951595,-78.46308000
13.97207595,-78.46308000
13.97463595,-73.99212000
13.97719595,-73.99212000
13.97975595,-73.99212000
13.98231595,-73.99212000
13.98487595,-73.99212000
13.98743595,-78.46308000
13.98999595,-78.46308000
13.99255595,-78.46308000
13.99511595,-73.99212000
13.99767595,-78.46308000
14.00023595,-78.46308000
14.00279595,-78.46308000
14.00535595,-78.46308000
14.00791595,-78.46308000
14.01047595,-78.46308000
14.01303595,-73.99212000
14.01559595,-78.46308000
14.01815595,-78.46308000
14.02071595,-78.46308000
14.02327595,-78.46308000
14.02583595,-78.46308000
14.02839595,-78.46308000
14.03095595,-78.46308000
14.03351595,-78.46308000
14.03607595,-78.46308000
14.03863595,-78.46308000
14.04119595,-78.46308000
14.04375595,-73.99212000
14.04631595,-78.46308000
14.04887595,-78.46308000
14.05143595,-78.46308000
14.05399595,-73.99212000
14.05655595,-78.46308000
14.05911595,-78.46308000
14.06167595,-78.46308000
14.06423595,-78.46308000
14.06679595,-78.46308000
14.06935595,-78.46308000
14.07191595,-78.46308000
14.07447595,-78.46308000
14.07703595,-78.46308000
14.07959595,-78.46308000
14.08215595,-78.46308000
14.08471595,-78.46308000
14.08727595,-78.46308000
14.08983595,-78.46308000
14.09239594,-78.46308000
14.09495594,-78.46308000
14.09751594,-78.46308000
14.10007594,-78.46308000
14.10263594,-73.99212000
14.10519594,-78.46308000
14.10775594,-78.46308000
14.11031594,-78.46308000
14.11287594,-78.46308000
14.11543594,-78.46308000
14.11799594,-78.46308000
14.12055594,-78.46308000
14.12311594,-78.46308000
14.12567594,-78.46308000
14.12823594,-73.99212000
14.13079594,-78.46308000
14.13335594,-78.46308000
14.13591594,-73.99212000
14.13847594,-78.46308000
14.14103594,-78.46308000
14.14359594,-73.99212000
14.14615594,-78.46308000
14.14871594,-73.99212000
14.15127594,-78.46308000
14.15383594,-78.46308000
14.15639594,-78.46308000
14.15895594,-78.46308000
14.16151594,-73.99212000
14.16407594,-78.46308000
14.16663594,-73.99212000
14.16919594,-73.99212000
14.17175594,-73.99212000
14.17431594,-78.46308000
14.17687594,-78.46308000
14.17943594,-78.46308000
14.18199594,-78.46308000
14.18455594,-78.46308000
14.18711594,-78.46308000
14.18967594,-78.46308000
14.19223594,-73.99212000
14.19479594,-73.99212000
14.19735594,-78.46308000
14.19991594,-78.46308000
14.20247594,-73.99212000
14.20503594,-78.46308000
14.20759594,-73.99212000
14.21015594,-73.99212000
14.21271594,-78.46308000
14.21527594,-78.46308000
14.21783594,-73.99212000
14.22039594,-78.46308000
14.22295594,-73.99212000
14.22551594,-73.99212000
14.22807594,-73.99212000
14.23063594,-73.99212000
14.23319594,-78.46308000
14.23575594,-73.99212000
14.23831594,-73.99212000
14.24087594,-73.99212000
14.24343594,-73.99212000
14.24599594,-73.99212000
14.24855594,-73.99212000
14.25111594,-73.99212000
14.25367594,-73.99212000
14.25623594,-73.99212000
14.25879594,-73.99212000
14.26135594,-73.99212000
14.26391594,-73.99212000
14.26647594,-78.46308000
14.26903594,-78.46308000
14.27159594,-73.99212000
14.27415594,-73.99212000
14.27671594,-73.99212000
14.27927594,-78.46308000
14.28183594,-73.99212000
14.28439594,-78.46308000
14.28695594,-69.50591000
14.28951594,-73.99212000
14.29207594,-73.99212000
14.29463594,-73.99212000
14.29719594,-73.99212000
14.29975594,-78.46308000
14.30231594,-73.99212000
14.30487594,-73.99212000
14.30743594,-73.99212000
14.30999594,-73.99212000
14.31255594,-73.99212000
14.31511594,-73.99212000
14.31767594,-78.46308000
14.32023594,-73.99212000
14.32279594,-73.99212000
14.32535594,-73.99212000
14.32791594,-78.46308000
14.33047594,-73.99212000
14.33303594,-78.46308000
14.33559594,-73.99212000
14.33815594,-73.99212000
14.34071594,-73.99212000
14.34327594,-73.99212000
14.34583594,-73.99212000
14.34839594,-73.99212000
14.35095594,-73.99212000
14.35351594,-73.99212000
14.35607594,-73.99212000
14.35863594,-73.99212000
14.36119594,-73.99212000
14.36375594,-73.99212000
14.36631594,-73.99212000
14.36887594,-73.99212000
14.37143594,-73.99212000
14.37399594,-73.99212000
14.37655594,-73.99212000
14.37911594,-73.99212000
14.38167594,-73.99212000
14.38423594,-73.99212000
14.38679594,-73.99212000
14.38935594,-73.99212000
14.39191594,-73.99212000
14.39447594,-73.99212000
14.39703594,-73.99212000
14.39959594,-73.99212000
14.40215594,-73.99212000
14.40471594,-73.99212000
14.40727594,-73.99212000
14.40983594,-73.99212000
14.41239594,-73.99212000
14.41495594,-73.99212000
14.41751594,-73.99212000
14.42007594,-73.99212000
14.42263594,-73.99212000
14.42519594,-73.99212000
14.42775594,-78.46308000
14.43031594,-73.99212000
14.43287594,-73.99212000
14.43543594,-69.50591000
14.43799594,-73.99212000
14.44055594,-73.99212000
14.44311594,-73.99212000
14.44567594,-73.99212000
14.44823594,-73.99212000
14.45079594,-73.99212000
14.45335594,-73.99212000
14.45591594,-69.50591000
14.45847594,-73.99212000
14.46103594,-73.99212000
14.46359594,-73.99212000
14.46615594,-73.99212000
14.46871594,-73.99212000
14.47127594,-69.50591000
14.47383594,-73.99212000
14.47639594,-73.99212000
14.47895594,-73.99212000
14.48151594,-73.99212000
14.48407594,-73.99212000
14.48663594,-73.99212000
14.48919594,-73.99212000
14.49175594,-73.99212000
14.49431594,-73.99212000
14.49687594,-73.99212000
14.49943594,-73.99212000
14.50199594,-73.99212000
14.50455594,-73.99212000
14.50711594,-73.99212000
14.50967594,-73.99212000
14.51223594,-73.99212000
14.51479594,-73.99212000
14.51735594,-73.99212000
14.51991594,-73.99212000
14.52247594,-73.99212000
14.52503594,-73.99212000
14.52759594,-73.99212000
14.53015594,-73.99212000
14.53271594,-73.99212000
14.53527594,-69.50591000
14.53783594,-73.99212000
14.54039594,-78.46308000
14.54295594,-73.99212000
14.54551594,-73.99212000
14.54807594,-73.99212000
14.55063594,-73.99212000
14.55319594,-73.99212000
14.55575594,-73.99212000
14.55831594,-73.99212000
14.56087594,-78.46308000
14.56343594,-73.99212000
14.56599594,-73.99212000
14.56855594,-78.46308000
14.57111594,-73.99212000
14.57367594,-73.99212000
14.57623594,-69.50591000
14.57879594,-73.99212000
14.58135594,-73.99212000
14.58391594,-73.99212000
14.58647594,-73.99212000
14.58903594,-78.46308000
14.59159594,-73.99212000
14.59415594,-78.46308000
14.59671594,-78.46308000
14.59927594,-73.99212000
14.60183594,-73.99212000
14.60439594,-78.46308000
14.60695594,-78.46308000
14.60951594,-73.99212000
14.61207594,-73.99212000
14.61463594,-73.99212000
14.61719594,-73.99212000
14.61975594,-78.46308000
14.62231594,-78.46308000
14.62487594,-78.46308000
14.62743594,-78.46308000
14.62999594,-78.46308000
14.63255594,-73.99212000
14.63511594,-73.99212000
14.63767594,-78.46308000
14.64023594,-73.99212000
14.64279594,-78.46308000
14.64535594,-78.46308000
14.64791594,-73.99212000
14.65047594,-78.46308000
14.65303594,-78.46308000
14.65559594,-78.46308000
14.65815594,-78.46308000
14.66071594,-78.46308000
14.66327594,-78.46308000
14.66583594,-73.99212000
14.66839594,-78.46308000
14.67095594,-78.46308000
14.67351594,-73.99212000
14.67607594,-73.99212000
14.67863594,-78.46308000
14.68119594,-78.46308000
14.68375594,-78.46308000
14.68631594,-78.46308000
14.68887594,-78.46308000
14.69143594,-78.46308000
14.69399594,-78.46308000
14.69655594,-78.46308000
14.69911594,-78.46308000
14.70167594,-78.46308000
14.70423594,-78.46308000
14.70679594,-78.46308000
14.70935594,-78.46308000
14.71191594,-78.46308000
14.71447594,-78.46308000
14.71703594,-78.46308000
14.71959594,-78.46308000
14.72215594,-73.99212000
14.72471594,-78.46308000
14.72727594,-78.46308000
14.72983594,-78.46308000
14.73239594,-78.46308000
14.73495594,-78.46308000
14.73751594,-78.46308000
14.74007594,-78.46308000
14.74263594,-78.46308000
14.74519594,-78.46308000
14.74775594,-78.46308000
14.75031594,-78.46308000
14.75287594,-78.46308000
14.75543594,-78.46308000
14.75799594,-78.46308000
14.76055594,-78.46308000
14.76311594,-78.46308000
14.76567594,-78.46308000
14.76823594,-78.46308000
14.77079594,-78.46308000
14.77335594,-78.46308000
14.77591594,-78.46308000
14.77847594,-78.46308000
14.78103594,-78.46308000
14.78359594,-78.46308000
14.78615594,-78.46308000
14.78871594,-78.46308000
14.79127594,-78.46308000
14.79383594,-78.46308000
14.79639594,-78.46308000
14.79895594,-78.46308000
14.80151594,-78.46308000
14.80407594,-78.46308000
14.80663594,-78.46308000
14.80919594,-78.46308000
14.81175594,-78.46308000
14.81431594,-73.99212000
14.81687594,-78.46308000
14.81943594,-78.46308000
14.82199594,-78.46308000
14.82455594,-78.46308000
14.82711594,-73.99212000
14.82967594,-73.99212000
14.83223594,-78.46308000
14.83479594,-78.46308000
14.83735594,-73.99212000
14.83991594,-78.46308000
14.84247594,-78.46308000
14.84503594,-73.99212000
14.84759594,-73.99212000
14.85015594,-78.46308000
14.85271594,-78.46308000
14.85527594,-78.46308000
14.85783594,-78.46308000
14.86039594,-73.99212000
14.86295594,-78.46308000
14.86551594,-78.46308000
14.86807594,-73.99212000
14.87063594,-78.46308000
14.87319594,-78.46308000
14.87575594,-78.46308000
14.87831594,-78.46308000
14.88087594,-78.46308000
14.88343594,-73.99212000
14.88599594,-78.46308000
14.88855594,-78.46308000
14.89111594,-78.46308000
14.89367594,-73.99212000
14.89623594,-78.46308000
14.89879594,-78.46308000
14.90135594,-78.46308000
14.90391594,-78.46308000
14.90647594,-78.46308000
14.90903594,-78.46308000
14.91159594,-78.46308000
14.91415594,-73.99212000
14.91671594,-78.46308000
14.91927594,-73.99212000
14.92183594,-78.46308000
14.92439594,-78.46308000
14.92695594,-73.99212000
14.92951594,-78.46308000
14.93207594,-78.46308000
14.93463594,-78.46308000
14.93719594,-73.99212000
14.93975594,-73.99212000
14.94231594,-78.46308000
14.94487594,-78.46308000
14.94743594,-78.46308000
14.94999594,-78.46308000
14.95255594,-73.99212000
14.95511594,-78.46308000
14.95767594,-78.46308000
14.96023594,-78.46308000
14.96279594,-73.99212000
14.96535594,-73.99212000
14.96791594,-73.99212000
14.97047594,-78.46308000
14.97303594,-78.46308000
14.97559594,-78.46308000
14.97815594,-78.46308000
14.98071594,-73.99212000
14.98327594,-78.46308000
14.98583594,-78.46308000
14.98839594,-78.46308000
14.99095594,-78.46308000
14.99351594,-78.46308000
14.99607594,-78.46308000
14.99863594,-73.99212000
15.00119594,-78.46308000
15.00375594,-78.46308000
15.00631594,-73.99212000
15.00887594,-73.99212000
15.01143594,-78.46308000
15.01399594,-73.99212000
15.01655594,-78.46308000
15.01911594,-78.46308000
15.02167594,-78.46308000
15.02423594,-78.46308000
15.02679594,-78.46308000
15.02935594,-78.46308000
15.03191594,-78.46308000
15.03447594,-78.46308000
15.03703594,-78.46308000
15.03959594,-78.46308000
15.04215594,-78.46308000
15.04471594,-78.46308000
15.04727594,-78.46308000
15.04983594,-73.99212000
15.05239594,-78.46308000
15.05495594,-78.46308000
15.05751594,-78.46308000
15.06007594,-78.46308000
15.06263594,-78.46308000
15.06519594,-78.46308000
15.06775594,-78.46308000
15.07031594,-78.46308000
15.07287594,-78.46308000
15.07543594,-78.46308000
15.07799594,-78.46308000
15.08055594,-78.46308000
15.08311594,-78.46308000
15.08567594,-78.46308000
15.08823594,-78.46308000
15.09079594,-78.46308000
15.09335594,-78.46308000
15.09591594,-78.46308000
15.09847594,-78.46308000
15.10103594,-78.46308000
15.10359594,-78.46308000
15.10615594,-78.46308000
15.10871594,-73.99212000
15.11127594,-78.46308000
15.11383594,-73.99212000
15.11639594,-78.46308000
15.11895594,-73.99212000
15.12151594,-78.46308000
15.12407594,-78.46308000
15.12663594,-73.99212000
15.12919594,-78.46308000
15.13175594,-78.46308000
15.13431594,-78.46308000
15.13687594,-73.99212000
15.13943594,-73.99212000
15.14199594,-73.99212000
15.14455594,-73.99212000
15.14711594,-73.99212000
15.14967594,-73.99212000
15.15223594,-78.46308000
15.15479594,-73.99212000
15.15735594,-73.99212000
15.15991594,-73.99212000
15.16247594,-73.99212000
15.16503594,-73.99212000
15.16759594,-78.46308000
15.17015594,-78.46308000
15.17271594,-73.99212000
15.17527594,-78.46308000
15.17783594,-78.46308000
15.18039594,-78.46308000
15.18295594,-73.99212000
15.18551594,-78.46308000
15.18807594,-78.46308000
15.19063594,-73.99212000
15.19319594,-73.99212000
15.19575594,-73.99212000
15.19831594,-73.99212000
15.20087594,-73.99212000
15.20343594,-73.99212000
15.20599594,-73.99212000
15.20855594,-73.99212000
15.21111594,-73.99212000
15.21367594,-73.99212000
15.21623594,-73.99212000
15.21879594,-73.99212000
15.22135594,-73.99212000
15.22391594,-73.99212000
15.22647594,-73.99212000
15.22903594,-78.46308000
15.23159594,-78.46308000
15.23415594,-73.99212000
15.23671594,-73.99212000
15.23927594,-73.99212000
15.24183594,-73.99212000
15.24439594,-78.46308000
15.24695594,-78.46308000
15.24951594,-73.99212000
15.25207594,-73.99212000
15.25463594,-78.46308000
15.25719594,-78.46308000
15.25975594,-73.99212000
15.26231594,-78.46308000
15.26487594,-73.99212000
15.26743594,-78.46308000
15.26999594,-78.46308000
15.27255594,-73.99212000
15.27511594,-73.99212000
15.27767594,-73.99212000
15.28023594,-73.99212000
15.28279594,-78.46308000
15.28535594,-73.99212000
15.28791594,-73.99212000
15.29047594,-73.99212000
15.29303594,-78.46308000
15.29559594,-78.46308000
15.29815594,-78.46308000
15.30071594,-78.46308000
15.30327594,-73.99212000
15.30583594,-78.46308000
15.30839594,-78.46308000
15.31095594,-78.46308000
15.31351594,-73.99212000
15.31607594,-78.46308000
15.31863594,-78.46308000
15.32119594,-73.99212000
15.32375594,-78.46308000
15.32631594,-73.99212000
15.32887594,-73.99212000
15.33143594,-78.46308000
15.33399594,-78.46308000
15.33655594,-73.99212000
15.33911594,-78.46308000
15.34167594,-78.46308000
15.34423594,-73.99212000
15.34679594,-78.46308000
15.34935594,-78.46308000
15.35191594,-73.99212000
15.35447594,-73.99212000
15.35703594,-73.99212000
15.35959594,-78.46308000
15.36215594,-78.46308000
15.36471594,-78.46308000
15.36727594,-73.99212000
15.36983594,-73.99212000
15.37239594,-78.46308000
15.37495594,-78.46308000
15.37751594,-78.46308000
15.38007594,-78.46308000
15.38263594,-73.99212000
15.38519594,-78.46308000
15.38775594,-73.99212000
15.39031594,-73.99212000
15.39287594,-78.46308000
15.39543594,-73.99212000
15.39799594,-73.99212000
15.40055594,-73.99212000
15.40311594,-78.46308000
15.40567594,-73.99212000
15.40823594,-73.99212000
15.41079594,-78.46308000
15.41335594,-78.46308000
15.41591594,-73.99212000
15.41847594,-78.46308000
15.42103594,-73.99212000
15.42359594,-73.99212000
15.42615594,-73.99212000
15.42871594,-73.99212000
15.43127594,-73.99212000
15.43383594,-78.46308000
15.43639594,-73.99212000
15.43895594,-73.99212000
15.44151594,-78.46308000
15.44407594,-78.46308000
15.44663594,-73.99212000
15.44919594,-73.99212000
15.45175594,-73.99212000
15.45431594,-73.99212000
15.45687594,-73.99212000
15.45943594,-78.46308000
15.46199594,-73.99212000
15.46455594,-69.50591000
15.46711594,-73.99212000
15.46967594,-73.99212000
15.47223594,-73.99212000
15.47479594,-73.99212000
15.47735594,-73.99212000
15.47991594,-73.99212000
15.48247594,-73.99212000
15.48503594,-73.99212000
15.48759594,-73.99212000
15.49015594,-73.99212000
15.49271594,-73.99212000
15.49527594,-73.99212000
15.49783594,-78.46308000
15.50039594,-73.99212000
15.50295594,-73.99212000
15.50551594,-73.99212000
15.50807594,-73.99212000
15.51063594,-73.99212000
15.51319594,-73.99212000
15.51575594,-69.50591000
15.51831594,-73.99212000
15.52087594,-73.99212000
15.52343594,-73.99212000
15.52599594,-73.99212000
15.52855594,-73.99212000
15.53111594,-73.99212000
15.53367594,-73.99212000
15.53623594,-73.99212000
15.53879594,-73.99212000
15.54135594,-73.99212000
15.54391594,-73.99212000
15.54647594,-73.99212000
15.54903594,-73.99212000
15.55159594,-73.99212000
15.55415594,-73.99212000
15.55671594,-73.99212000
15.55927594,-73.99212000
15.56183594,-73.99212000
15.56439594,-73.99212000
15.56695594,-73.99212000
15.56951594,-73.99212000
15.57207594,-73.99212000
15.57463594,-73.99212000
15.57719594,-73.99212000
15.57975594,-73.99212000
15.58231594,-73.99212000
15.58487594,-73.99212000
15.58743594,-73.99212000
15.58999594,-73.99212000
15.59255594,-73.99212000
15.59511594,-73.99212000
15.59767594,-73.99212000
15.60023594,-73.99212000
15.60279594,-73.99212000
15.60535594,-69.50591000
15.60791594,-73.99212000
15.61047594,-73.99212000
15.61303594,-73.99212000
15.61559594,-73.99212000
15.61815594,-73.99212000
15.62071594,-73.99212000
15.62327594,-78.46308000
15.62583594,-73.99212000
15.62839594,-78.46308000
15.63095594,-78.46308000
15.63351594,-78.46308000
15.63607594,-73.99212000
15.63863594,-78.46308000
15.64119594,-73.99212000
15.64375594,-73.99212000
15.64631594,-78.46308000
15.64887594,-78.46308000
15.65143594,-73.99212000
15.65399594,-78.46308000
15.65655594,-78.46308000
15.65911594,-78.46308000
15.66167594,-78.46308000
15.66423594,-78.46308000
15.66679594,-73.99212000
15.66935594,-78.46308000
15.67191594,-78.46308000
15.67447594,-78.46308000
15.67703594,-73.99212000
15.67959594,-73.99212000
15.68215594,-78.46308000
15.68471594,-78.46308000
15.68727594,-73.99212000
15.68983594,-73.99212000
15.69239594,-73.99212000
15.69495594,-73.99212000
15.69751594,-73.99212000
15.70007594,-73.99212000
15.70263594,-78.46308000
15.70519594,-78.46308000
15.70775594,-78.46308000
15.71031594,-78.46308000
15.71287594,-78.46308000
15.71543594,-78.46308000
15.71799594,-78.46308000
15.72055594,-73.99212000
15.72311594,-73.99212000
15.72567594,-78.46308000
15.72823594,-73.99212000
15.73079594,-78.46308000
15.73335594,-73.99212000
15.73591594,-73.99212000
15.73847593,-73.99212000
15.74103593,-73.99212000
15.74359593,-73.99212000
15.74615593,-73.99212000
15.74871593,-73.99212000
15.75127593,-73.99212000
15.75383593,-73.99212000
15.75639593,-73.99212000
15.75895593,-73.99212000
15.76151593,-73.99212000
15.76407593,-73.99212000
15.76663593,-78.46308000
15.76919593,-73.99212000
15.77175593,-73.99212000
15.77431593,-73.99212000
15.77687593,-73.99212000
15.77943593,-78.46308000
15.78199593,-78.46308000
15.78455593,-78.46308000
15.78711593,-73.99212000
15.78967593,-73.99212000
15.79223593,-73.99212000
15.79479593,-73.99212000
15.79735593,-73.99212000
15.79991593,-78.46308000
15.80247593,-73.99212000
15.80503593,-73.99212000
15.80759593,-78.46308000
15.81015593,-78.46308000
15.81271593,-78.46308000
15.81527593,-78.46308000
15.81783593,-73.99212000
15.82039593,-73.99212000
15.82295593,-78.46308000
15.82551593,-78.46308000
15.82807593,-73.99212000
15.83063593,-73.99212000
15.83319593,-78.46308000
15.83575593,-73.99212000
15.83831593,-78.46308000
15.84087593,-78.46308000
15.84343593,-73.99212000
15.84599593,-78.46308000
15.84855593,-73.99212000
15.85111593,-78.46308000
15.85367593,-78.46308000
15.85623593,-78.46308000
15.85879593,-78.46308000
15.86135593,-78.46308000
15.86391593,-78.46308000
15.86647593,-78.46308000
15.86903593,-78.46308000
15.87159593,-73.99212000
15.87415593,-78.46308000
15.87671593,-78.46308000
15.87927593,-78.46308000
15.88183593,-78.46308000
15.88439593,-78.46308000
15.88695593,-78.46308000
15.88951593,-78.46308000
15.89207593,-78.46308000
15.89463593,-78.46308000
15.89719593,-73.99212000
15.89975593,-78.46308000
15.90231593,-78.46308000
15.90487593,-78.46308000
15.90743593,-78.46308000
15.90999593,-78.46308000
15.91255593,-78.46308000
15.91511593,-78.46308000
15.91767593,-73.99212000
15.92023593,-78.46308000
15.92279593,-78.46308000
15.92535593,-78.46308000
15.92791593,-78.46308000
15.93047593,-78.46308000
15.93303593,-78.46308000
15.93559593,-78.46308000
15.93815593,-78.46308000
15.94071593,-78.46308000
15.94327593,-78.46308000
15.94583593,-78.46308000
15.94839593,-78.46308000
15.95095593,-78.46308000
15.95351593,-78.46308000
15.95607593,-78.46308000
15.95863593,-78.46308000
15.96119593,-78.46308000
15.96375593,-78.46308000
15.96631593,-78.46308000
15.96887593,-78.46308000
15.97143593,-78.46308000
15.97399593,-78.46308000
15.97655593,-78.46308000
15.97911593,-78.46308000
15.98167593,-78.46308000
15.98423593,-78.46308000
15.98679593,-78.46308000
15.98935593,-78.46308000
15.99191593,-78.46308000
15.99447593,-78.46308000
15.99703593,-78.46308000
15.99959593,-78.46308000
16.00215593,-78.46308000
16.00471593,-78.46308000
16.00727593,-78.46308000
16.00983593,-78.46308000
16.01239593,-78.46308000
16.01495593,-78.46308000
16.01751593,-78.46308000
16.02007593,-78.46308000
16.02263593,-78.46308000
16.02519593,-78.46308000
16.02775593,-78.46308000
16.03031593,-78.46308000
16.03287593,-78.46308000
16.03543593,-78.46308000
16.03799593,-78.46308000
16.04055593,-78.46308000
16.04311593,-78.46308000
16.04567593,-78.46308000
16.04823593,-78.46308000
16.05079593,-78.46308000
16.05335593,-78.46308000
16.05591593,-78.46308000
16.05847593,-78.46308000
16.06103593,-78.46308000
16.06359593,-78.46308000
16.06615593,-78.46308000
16.06871593,-78.46308000
16.07127593,-78.46308000
16.07383593,-78.46308000
16.07639593,-78.46308000
16.07895593,-78.46308000
16.08151593,-78.46308000
16.08407593,-78.46308000
16.08663593,-78.46308000
16.08919593,-78.46308000
16.09175593,-78.46308000
16.09431593,-78.46308000
16.09687593,-78.46308000
16.09943593,-78.46308000
16.10199593,-78.46308000
16.10455593,-78.46308000
16.10711593,-78.46308000
16.10967593,-78.46308000
16.11223593,-78.46308000
16.11479593,-78.46308000
16.11735593,-78.46308000
16.11991593,-78.46308000
16.12247593,-78.46308000
16.12503593,-78.46308000
16.12759593,-78.46308000
16.13015593,-78.46308000
16.13271593,-78.46308000
16.13527593,-78.46308000
16.13783593,-78.46308000
16.14039593,-78.46308000
16.14295593,-78.46308000
16.14551593,-78.46308000
16.14807593,-78.46308000
16.15063593,-78.46308000
16.15319593,-78.46308000
16.15575593,-78.46308000
16.15831593,-78.46308000
16.16087593,-78.46308000
16.16343593,-78.46308000
16.16599593,-78.46308000
16.16855593,-78.46308000
16.17111593,-78.46308000
16.17367593,-78.46308000
16.17623593,-73.99212000
16.17879593,-78.46308000
16.18135593,-78.46308000
16.18391593,-78.46308000
16.18647593,-73.99212000
16.18903593,-73.99212000
16.19159593,-78.46308000
16.19415593,-78.46308000
16.19671593,-78.46308000
16.19927593,-78.46308000
16.20183593,-78.46308000
16.20439593,-78.46308000
16.20695593,-73.99212000
16.20951593,-78.46308000
16.21207593,-73.99212000
16.21463593,-78.46308000
16.21719593,-78.46308000
16.21975593,-78.46308000
16.22231593,-78.46308000
16.22487593,-73.99212000
16.22743593,-78.46308000
16.22999593,-78.46308000
16.23255593,-78.46308000
16.23511593,-73.99212000
16.23767593,-73.99212000
16.24023593,-78.46308000
16.24279593,-78.46308000
16.24535593,-73.99212000
16.24791593,-73.99212000
16.25047593,-73.99212000
16.25303593,-73.99212000
16.25559593,-73.99212000
16.25815593,-73.99212000
16.26071593,-73.99212000
16.26327593,-73.99212000
16.26583593,-78.46308000
16.26839593,-73.99212000
16.27095593,-73.99212000
16.27351593,-73.99212000
16.27607593,-73.99212000
16.27863593,-73.99212000
16.28119593,-73.99212000
16.28375593,-73.99212000
16.28631593,-73.99212000
16.28887593,-73.99212000
16.29143593,-69.50591000
16.29399593,-73.99212000
16.29655593,-73.99212000
16.29911593,-73.99212000
16.30167593,-73.99212000
16.30423593,-73.99212000
16.30679593,-73.99212000
16.30935593,-73.99212000
16.31191593,-73.99212000
16.31447593,-73.99212000
16.31703593,-73.99212000
16.31959593,-73.99212000
16.32215593,-73.99212000
16.32471593,-73.99212000
16.32727593,-73.99212000
16.32983593,-73.99212000
16.33239593,-73.99212000
16.33495593,-69.50591000
16.33751593,-69.50591000
16.34007593,-73.99212000
16.34263593,-69.50591000
16.34519593,-69.50591000
16.34775593,-69.50591000
16.35031593,-73.99212000
16.35287593,-69.50591000
16.35543593,-73.99212000
16.35799593,-69.50591000
16.36055593,-69.50591000
16.36311593,-73.99212000
16.36567593,-73.99212000
16.36823593,-73.99212000
16.37079593,-73.99212000
16.37335593,-73.99212000
16.37591593,-69.50591000
16.37847593,-73.99212000
16.38103593,-73.99212000
16.38359593,-73.99212000
16.38615593,-73.99212000
16.38871593,-73.99212000
16.39127593,-69.50591000
16.39383593,-73.99212000
16.39639593,-73.99212000
16.39895593,-73.99212000
16.40151593,-73.99212000
16.40407593,-73.99212000
16.40663593,-73.99212000
16.40919593,-73.99212000
16.41175593,-73.99212000
16.41431593,-73.99212000
16.41687593,-78.46308000
16.41943593,-73.99212000
16.42199593,-73.99212000
16.42455593,-73.99212000
16.42711593,-78.46308000
16.42967593,-73.99212000
16.43223593,-73.99212000
16.43479593,-78.46308000
16.43735593,-73.99212000
16.43991593,-73.99212000
16.44247593,-73.99212000
16.44503593,-73.99212000
16.44759593,-78.46308000
16.45015593,-73.99212000
16.45271593,-73.99212000
16.45527593,-73.99212000
16.45783593,-73.99212000
16.46039593,-73.99212000
16.46295593,-73.99212000
16.46551593,-73.99212000
16.46807593,-73.99212000
16.47063593,-73.99212000
16.47319593,-73.99212000
16.47575593,-73.99212000
16.47831593,-73.99212000
16.48087593,-73.99212000
16.48343593,-73.99212000
16.48599593,-73.99212000
16.48855593,-78.46308000
16.49111593,-73.99212000
16.49367593,-78.46308000
16.49623593,-73.99212000
16.49879593,-73.99212000
16.50135593,-69.50591000
16.50391593,-73.99212000
16.50647593,-73.99212000
16.50903593,-73.99212000
16.51159593,-73.99212000
16.51415593,-73.99212000
16.51671593,-73.99212000
16.51927593,-73.99212000
16.52183593,-73.99212000
16.52439593,-78.46308000
16.52695593,-78.46308000
16.52951593,-78.46308000
16.53207593,-78.46308000
16.53463593,-78.46308000
16.53719593,-73.99212000
16.53975593,-78.46308000
16.54231593,-78.46308000
16.54487593,-78.46308000
16.54743593,-73.99212000
16.54999593,-78.46308000
16.55255593,-73.99212000
16.55511593,-73.99212000
16.55767593,-73.99212000
16.56023593,-73.99212000
16.56279593,-78.46308000
16.56535593,-78.46308000
16.56791593,-73.99212000
16.57047593,-78.46308000
16.57303593,-73.99212000
16.57559593,-78.46308000
16.57815593,-73.99212000
16.58071593,-78.46308000
16.58327593,-73.99212000
16.58583593,-73.99212000
16.58839593,-73.99212000
16.59095593,-73.99212000
16.59351593,-73.99212000
16.59607593,-73.99212000
16.59863593,-73.99212000
16.60119593,-73.99212000
16.60375593,-73.99212000
16.60631593,-73.99212000
16.60887593,-73.99212000
16.61143593,-73.99212000
16.61399593,-73.99212000
16.61655593,-73.99212000
16.61911593,-73.99212000
16.62167593,-73.99212000
16.62423593,-78.46308000
16.62679593,-73.99212000
16.62935593,-73.99212000
16.63191593,-73.99212000
16.63447593,-73.99212000
16.63703593,-73.99212000
16.63959593,-78.46308000
16.64215593,-73.99212000
16.64471593,-73.99212000
16.64727593,-73.99212000
16.64983593,-73.99212000
16.65239593,-73.99212000
16.65495593,-73.99212000
16.65751593,-78.46308000
16.66007593,-73.99212000
16.66263593,-73.99212000
16.66519593,-73.99212000
16.66775593,-73.99212000
16.67031593,-73.99212000
16.67287593,-69.50591000
16.67543593,-73.99212000
16.67799593,-73.99212000
16.68055593,-73.99212000
16.68311593,-73.99212000
16.68567593,-73.99212000
16.68823593,-73.99212000
16.69079593,-73.99212000
16.69335593,-73.99212000
16.69591593,-73.99212000
16.69847593,-73.99212000
16.70103593,-73.99212000
16.70359593,-73.99212000
16.70615593,-73.99212000
16.70871593,-73.99212000
16.71127593,-73.99212000
16.71383593,-78.46308000
16.71639593,-73.99212000
16.71895593,-73.99212000
16.72151593,-73.99212000
16.72407593,-73.99212000
16.72663593,-73.99212000
16.72919593,-73.99212000
16.73175593,-73.99212000
16.73431593,-73.99212000
16.73687593,-73.99212000
16.73943593,-73.99212000
16.74199593,-73.99212000
16.74455593,-78.46308000
16.74711593,-78.46308000
16.74967593,-73.99212000
16.75223593,-78.46308000
16.75479593,-73.99212000
16.75735593,-69.50591000
16.75991593,-73.99212000
16.76247593,-78.46308000
16.76503593,-73.99212000
16.76759593,-73.99212000
16.77015593,-73.99212000
16.77271593,-78.46308000
16.77527593,-78.46308000
16.77783593,-73.99212000
16.78039593,-73.99212000
16.78295593,-73.99212000
16.78551593,-73.99212000
16.78807593,-78.46308000
16.79063593,-73.99212000
16.79319593,-73.99212000
16.79575593,-73.99212000
16.79831593,-69.50591000
16.80087593,-73.99212000
16.80343593,-69.50591000
16.80599593,-73.99212000
16.80855593,-69.50591000
16.81111593,-73.99212000
16.81367593,-73.99212000
16.81623593,-73.99212000
16.81879593,-69.50591000
16.82135593,-69.50591000
16.82391593,-69.50591000
16.82647593,-69.50591000
16.82903593,-69.50591000
16.83159593,-69.50591000
16.83415593,-73.99212000
16.83671593,-69.50591000
16.83927593,-73.99212000
16.84183593,-73.99212000
16.84439593,-73.99212000
16.84695593,-73.99212000
16.84951593,-69.50591000
16.85207593,-73.99212000
16.85463593,-73.99212000
16.85719593,-69.50591000
16.85975593,-73.99212000
16.86231593,-69.50591000
16.86487593,-73.99212000
16.86743593,-73.99212000
16.86999593,-69.50591000
16.87255593,-69.50591000
16.87511593,-69.50591000
16.87767593,-73.99212000
16.88023593,-73.99212000
16.88279593,-73.99212000
16.88535593,-69.50591000
16.88791593,-73.99212000
16.89047593,-69.50591000
16.89303593,-69.50591000
16.89559593,-73.99212000
16.89815593,-73.99212000
16.90071593,-73.99212000
16.90327593,-73.99212000
16.90583593,-69.50591000
16.90839593,-69.50591000
16.91095593,-73.99212000
16.91351593,-73.99212000
16.91607593,-69.50591000
16.91863593,-73.99212000
16.92119593,-69.50591000
16.92375593,-69.50591000
16.92631593,-69.50591000
16.92887593,-69.50591000
16.93143593,-73.99212000
16.93399593,-73.99212000
16.93655593,-73.99212000
16.93911593,-73.99212000
16.94167593,-73.99212000
16.94423593,-73.99212000
16.94679593,-73.99212000
16.94935593,-73.99212000
16.95191593,-73.99212000
16.95447593,-73.99212000
16.95703593,-73.99212000
16.95959593,-69.50591000
16.96215593,-73.99212000
16.96471593,-73.99212000
16.96727593,-73.99212000
16.96983593,-73.99212000
16.97239593,-73.99212000
16.97495593,-73.99212000
16.97751593,-73.99212000
16.98007593,-73.99212000
16.98263593,-73.99212000
16.98519593,-73.99212000
16.98775593,-73.99212000
16.99031593,-73.99212000
16.99287593,-73.99212000
16.99543593,-73.99212000
16.99799593,-73.99212000
17.00055593,-73.99212000
17.00311593,-73.99212000
17.00567593,-73.99212000
17.00823593,-73.99212000
17.01079593,-73.99212000
17.01335593,-78.46308000
17.01591593,-78.46308000
17.01847593,-78.46308000
17.02103593,-73.99212000
17.02359593,-73.99212000
17.02615593,-73.99212000
17.02871593,-73.99212000
17.03127593,-73.99212000
17.03383593,-73.99212000
17.03639593,-78.46308000
17.03895593,-78.46308000
17.04151593,-73.99212000
17.04407593,-73.99212000
17.04663593,-73.99212000
17.04919593,-73.99212000
17.05175593,-69.50591000
17.05431593,-78.46308000
17.05687593,-73.99212000
17.05943593,-73.99212000
17.06199593,-78.46308000
17.06455593,-78.46308000
17.06711593,-69.50591000
17.06967593,-78.46308000
17.07223593,-78.46308000
17.07479593,-73.99212000
17.07735593,-69.50591000
17.07991593,-78.46308000
17.08247593,-73.99212000
17.08503593,-73.99212000
17.08759593,-73.99212000
17.09015593,-73.99212000
17.09271593,-73.99212000
17.09527593,-73.99212000
17.09783593,-73.99212000
17.10039593,-73.99212000
17.10295593,-73.99212000
17.10551593,-73.99212000
17.10807593,-73.99212000
17.11063593,-73.99212000
17.11319593,-73.99212000
17.11575593,-73.99212000
17.11831593,-73.99212000
17.12087593,-73.99212000
17.12343593,-78.46308000
17.12599593,-78.46308000
17.12855593,-73.99212000
17.13111593,-73.99212000
17.13367593,-73.99212000
17.13623593,-78.46308000
17.13879593,-73.99212000
17.14135593,-73.99212000
17.14391593,-73.99212000
17.14647593,-73.99212000
17.14903593,-73.99212000
17.15159593,-78.46308000
17.15415593,-73.99212000
17.15671593,-73.99212000
17.15927593,-73.99212000
17.16183593,-73.99212000
17.16439593,-78.46308000
17.16695593,-73.99212000
17.16951593,-78.46308000
17.17207593,-73.99212000
17.17463593,-78.46308000
17.17719593,-73.99212000
17.17975593,-73.99212000
17.18231593,-78.46308000
17.18487593,-73.99212000
17.18743593,-78.46308000
17.18999593,-73.99212000
17.19255593,-73.99212000
17.19511593,-78.46308000
17.19767593,-78.46308000
17.20023593,-78.46308000
17.20279593,-78.46308000
17.20535593,-73.99212000
17.20791593,-78.46308000
17.21047593,-73.99212000
17.21303593,-73.99212000
17.21559593,-73.99212000
17.21815593,-73.99212000
17.22071593,-73.99212000
17.22327593,-73.99212000
17.22583593,-73.99212000
17.22839593,-78.46308000
17.23095593,-73.99212000
17.23351593,-78.46308000
17.23607593,-73.99212000
17.23863593,-73.99212000
17.24119593,-73.99212000
17.24375593,-73.99212000
17.24631593,-78.46308000
17.24887593,-78.46308000
17.25143593,-73.99212000
17.25399593,-78.46308000
17.25655593,-73.99212000
17.25911593,-78.46308000
17.26167593,-78.46308000
17.26423593,-73.99212000
17.26679593,-69.50591000
17.26935593,-78.46308000
17.27191593,-78.46308000
17.27447593,-78.46308000
17.27703593,-73.99212000
17.27959593,-78.46308000
17.28215593,-78.46308000
17.28471593,-78.46308000
17.28727593,-78.46308000
17.28983593,-78.46308000
17.29239593,-78.46308000
17.29495593,-78.46308000
17.29751593,-78.46308000
17.30007593,-78.46308000
17.30263593,-78.46308000
17.30519593,-78.46308000
17.30775593,-73.99212000
17.31031593,-78.46308000
17.31287593,-73.99212000
17.31543593,-78.46308000
17.31799593,-73.99212000
17.32055593,-78.46308000
17.32311593,-78.46308000
17.32567593,-78.46308000
17.32823593,-73.99212000
17.33079593,-78.46308000
17.33335593,-73.99212000
17.33591593,-78.46308000
17.33847593,-78.46308000
17.34103593,-78.46308000
17.34359593,-78.46308000
17.34615593,-78.46308000
17.34871593,-78.46308000
17.35127593,-78.46308000
17.35383593,-78.46308000
17.35639593,-78.46308000
17.35895593,-78.46308000
17.36151593,-78.46308000
17.36407593,-78.46308000
17.36663593,-78.46308000
17.36919593,-78.46308000
17.37175593,-73.99212000
17.37431593,-78.46308000
17.37687593,-73.99212000
17.37943593,-78.46308000
17.38199593,-78.46308000
17.38455592,-78.46308000
17.38711592,-78.46308000
17.38967592,-78.46308000
17.39223592,-78.46308000
17.39479592,-78.46308000
17.39735592,-73.99212000
17.39991592,-78.46308000
17.40247592,-78.46308000
17.40503592,-73.99212000
17.40759592,-78.46308000
17.41015592,-78.46308000
17.41271592,-78.46308000
17.41527592,-73.99212000
17.41783592,-73.99212000
17.42039592,-78.46308000
17.42295592,-78.46308000
17.42551592,-78.46308000
17.42807592,-78.46308000
17.43063592,-73.99212000
17.43319592,-78.46308000
17.43575592,-73.99212000
17.43831592,-78.46308000
17.44087592,-78.46308000
17.44343592,-78.46308000
17.44599592,-78.46308000
17.44855592,-78.46308000
17.45111592,-78.46308000
17.45367592,-78.46308000
17.45623592,-78.46308000
17.45879592,-73.99212000
17.46135592,-78.46308000
17.46391592,-78.46308000
17.46647592,-78.46308000
17.46903592,-73.99212000
17.47159592,-73.99212000
17.47415592,-78.46308000
17.47671592,-78.46308000
17.47927592,-78.46308000
17.48183592,-78.46308000
17.48439592,-78.46308000
17.48695592,-78.46308000
17.48951592,-78.46308000
17.49207592,-78.46308000
17.49463592,-78.46308000
17.49719592,-78.46308000
17.49975592,-78.46308000
17.50231592,-78.46308000
17.50487592,-78.46308000
17.50743592,-78.46308000
17.50999592,-78.46308000
17.51255592,-78.46308000
17.51511592,-78.46308000
17.51767592,-78.46308000
17.52023592,-78.46308000
17.52279592,-78.46308000
17.52535592,-78.46308000
17.52791592,-78.46308000
17.53047592,-78.46308000
17.53303592,-78.46308000
17.53559592,-78.46308000
17.53815592,-78.46308000
17.54071592,-78.46308000
17.54327592,-78.46308000
17.54583592,-78.46308000
17.54839592,-78.46308000
17.55095592,-73.99212000
17.55351592,-78.46308000
17.55607592,-78.46308000
17.55863592,-78.46308000
17.56119592,-78.46308000
17.56375592,-78.46308000
17.56631592,-78.46308000
17.56887592,-78.46308000
17.57143592,-78.46308000
17.57399592,-78.46308000
17.57655592,-78.46308000
17.57911592,-78.46308000
17.58167592,-78.46308000
17.58423592,-78.46308000
17.58679592,-73.99212000
17.58935592,-78.46308000
17.59191592,-78.46308000
17.59447592,-78.46308000
17.59703592,-78.46308000
17.59959592,-78.46308000
17.60215592,-78.46308000
17.60471592,-78.46308000
17.60727592,-78.46308000
17.60983592,-78.46308000
17.61239592,-78.46308000
17.61495592,-73.99212000
17.61751592,-78.46308000
17.62007592,-78.46308000
17.62263592,-78.46308000
17.62519592,-73.99212000
17.62775592,-73.99212000
17.63031592,-73.99212000
17.63287592,-78.46308000
17.63543592,-73.99212000
17.63799592,-78.46308000
17.64055592,-78.46308000
17.64311592,-73.99212000
17.64567592,-73.99212000
17.64823592,-78.46308000
17.65079592,-78.46308000
17.65335592,-73.99212000
17.65591592,-73.99212000
17.65847592,-78.46308000
17.66103592,-73.99212000
17.66359592,-73.99212000
17.66615592,-73.99212000
17.66871592,-73.99212000
17.67127592,-78.46308000
17.67383592,-73.99212000
17.67639592,-78.46308000
17.67895592,-73.99212000
17.68151592,-73.99212000
17.68407592,-73.99212000
17.68663592,-73.99212000
17.68919592,-78.46308000
17.69175592,-78.46308000
17.69431592,-73.99212000
17.69687592,-73.99212000
17.69943592,-73.99212000
17.70199592,-78.46308000
17.70455592,-78.46308000
17.70711592,-73.99212000
17.70967592,-73.99212000
17.71223592,-78.46308000
17.71479592,-78.46308000
17.71735592,-78.46308000
17.71991592,-78.46308000
17.72247592,-78.46308000
17.72503592,-73.99212000
17.72759592,-78.46308000
17.73015592,-73.99212000
17.73271592,-73.99212000
17.73527592,-73.99212000
17.73783592,-78.46308000
17.74039592,-73.99212000
17.74295592,-73.99212000
17.74551592,-78.46308000
17.74807592,-78.46308000
17.75063592,-73.99212000
17.75319592,-78.46308000
17.75575592,-73.99212000
17.75831592,-78.46308000
17.76087592,-73.99212000
17.76343592,-73.99212000
17.76599592,-73.99212000
17.76855592,-78.46308000
17.77111592,-73.99212000
17.77367592,-78.46308000
17.77623592,-78.46308000
17.77879592,-78.46308000
17.78135592,-73.99212000
17.78391592,-78.46308000
17.78647592,-73.99212000
17.78903592,-78.46308000
17.79159592,-78.46308000
17.79415592,-78.46308000
17.79671592,-73.99212000
17.79927592,-73.99212000
17.80183592,-78.46308000
17.80439592,-73.99212000
17.80695592,-73.99212000
17.80951592,-73.99212000
17.81207592,-78.46308000
17.81463592,-73.99212000
17.81719592,-78.46308000
17.81975592,-73.99212000
17.82231592,-78.46308000
17.82487592,-73.99212000
17.82743592,-73.99212000
17.82999592,-78.46308000
17.83255592,-73.99212000
17.83511592,-73.99212000
17.83767592,-73.99212000
17.84023592,-73.99212000
17.84279592,-73.99212000
17.84535592,-73.99212000
17.84791592,-78.46308000
17.85047592,-73.99212000
17.85303592,-73.99212000
17.85559592,-73.99212000
17.85815592,-73.99212000
17.86071592,-78.46308000
17.86327592,-73.99212000
17.86583592,-73.99212000
17.86839592,-73.99212000
17.87095592,-73.99212000
17.87351592,-73.99212000
17.87607592,-73.99212000
17.87863592,-73.99212000
17.88119592,-73.99212000
17.88375592,-78.46308000
17.88631592,-73.99212000
17.88887592,-73.99212000
17.89143592,-73.99212000
17.89399592,-73.99212000
17.89655592,-73.99212000
17.89911592,-73.99212000
17.90167592,-73.99212000
17.90423592,-73.99212000
17.90679592,-69.50591000
17.90935592,-73.99212000
17.91191592,-78.46308000
17.91447592,-73.99212000
17.91703592,-73.99212000
17.91959592,-73.99212000
17.92215592,-73.99212000
17.92471592,-73.99212000
17.92727592,-73.99212000
17.92983592,-73.99212000
17.93239592,-73.99212000
17.93495592,-73.99212000
17.93751592,-73.99212000
17.94007592,-73.99212000
17.94263592,-69.50591000
17.94519592,-73.99212000
17.94775592,-73.99212000
17.95031592,-78.46308000
17.95287592,-73.99212000
17.95543592,-73.99212000
17.95799592,-73.99212000
17.96055592,-73.99212000
17.96311592,-69.50591000
17.96567592,-73.99212000
17.96823592,-73.99212000
17.97079592,-73.99212000
17.97335592,-73.99212000
17.97591592,-73.99212000
17.97847592,-73.99212000
17.98103592,-73.99212000
17.98359592,-73.99212000
17.98615592,-73.99212000
17.98871592,-73.99212000
17.99127592,-73.99212000
17.99383592,-69.50591000
17.99639592,-73.99212000
17.99895592,-78.46308000
18.00151592,-73.99212000
18.00407592,-73.99212000
18.00663592,-73.99212000
18.00919592,-73.99212000
18.01175592,-73.99212000
18.01431592,-73.99212000
18.01687592,-73.99212000
18.01943592,-73.99212000
18.02199592,-73.99212000
18.02455592,-73.99212000
18.02711592,-69.50591000
18.02967592,-73.99212000
18.03223592,-73.99212000
18.03479592,-73.99212000
18.03735592,-73.99212000
18.03991592,-73.99212000
18.04247592,-73.99212000
18.04503592,-73.99212000
18.04759592,-73.99212000
18.05015592,-73.99212000
18.05271592,-69.50591000
18.05527592,-73.99212000
18.05783592,-73.99212000
18.06039592,-73.99212000
18.06295592,-73.99212000
18.06551592,-78.46308000
18.06807592,-73.99212000
18.07063592,-73.99212000
18.07319592,-73.99212000
18.07575592,-78.46308000
18.07831592,-73.99212000
18.08087592,-73.99212000
18.08343592,-73.99212000
18.08599592,-73.99212000
18.08855592,-73.99212000
18.09111592,-73.99212000
18.09367592,-73.99212000
18.09623592,-73.99212000
18.09879592,-73.99212000
18.10135592,-73.99212000
18.10391592,-73.99212000
18.10647592,-73.99212000
18.10903592,-73.99212000
18.11159592,-73.99212000
18.11415592,-73.99212000
18.11671592,-78.46308000
18.11927592,-73.99212000
18.12183592,-73.99212000
18.12439592,-73.99212000
18.12695592,-73.99212000
18.12951592,-73.99212000
18.13207592,-78.46308000
18.13463592,-73.99212000
18.13719592,-78.46308000
18.13975592,-78.46308000
18.14231592,-73.99212000
18.14487592,-73.99212000
18.14743592,-78.46308000
18.14999592,-78.46308000
18.15255592,-78.46308000
18.15511592,-78.46308000
18.15767592,-78.46308000
18.16023592,-73.99212000
18.16279592,-73.99212000
18.16535592,-73.99212000
18.16791592,-78.46308000
18.17047592,-78.46308000
18.17303592,-78.46308000
18.17559592,-73.99212000
18.17815592,-78.46308000
18.18071592,-78.46308000
18.18327592,-78.46308000
18.18583592,-78.46308000
18.18839592,-73.99212000
18.19095592,-78.46308000
18.19351592,-78.46308000
18.19607592,-78.46308000
18.19863592,-78.46308000
18.20119592,-78.46308000
18.20375592,-78.46308000
18.20631592,-78.46308000
18.20887592,-78.46308000
18.21143592,-78.46308000
18.21399592,-78.46308000
18.21655592,-73.99212000
18.21911592,-78.46308000
18.22167592,-78.46308000
18.22423592,-78.46308000
18.22679592,-78.46308000
18.22935592,-78.46308000
18.23191592,-78.46308000
18.23447592,-78.46308000
18.23703592,-78.46308000
18.23959592,-78.46308000
18.24215592,-78.46308000
18.24471592,-78.46308000
18.24727592,-78.46308000
18.24983592,-73.99212000
18.25239592,-78.46308000
18.25495592,-78.46308000
18.25751592,-78.46308000
18.26007592,-78.46308000
18.26263592,-78.46308000
18.26519592,-73.99212000
18.26775592,-78.46308000
18.27031592,-78.46308000
18.27287592,-78.46308000
18.27543592,-78.46308000
18.27799592,-78.46308000
18.28055592,-78.46308000
18.28311592,-78.46308000
18.28567592,-78.46308000
18.28823592,-78.46308000
18.29079592,-78.46308000
18.29335592,-78.46308000
18.29591592,-78.46308000
18.29847592,-78.46308000
18.30103592,-78.46308000
18.30359592,-78.46308000
18.30615592,-78.46308000
18.30871592,-78.46308000
18.31127592,-78.46308000
18.31383592,-78.46308000
18.31639592,-78.46308000
18.31895592,-78.46308000
18.32151592,-78.46308000
18.32407592,-78.46308000
18.32663592,-78.46308000
18.32919592,-78.46308000
18.33175592,-78.46308000
18.33431592,-78.46308000
18.33687592,-78.46308000
18.33943592,-78.46308000
18.34199592,-78.46308000
18.34455592,-78.46308000
18.34711592,-78.46308000
18.34967592,-78.46308000
18.35223592,-78.46308000
18.35479592,-78.46308000
18.35735592,-78.46308000
18.35991592,-78.46308000
18.36247592,-78.46308000
18.36503592,-78.46308000
18.36759592,-78.46308000
18.37015592,-78.46308000
18.37271592,-78.46308000
18.37527592,-78.46308000
18.37783592,-78.46308000
18.38039592,-78.46308000
18.38295592,-78.46308000
18.38551592,-78.46308000
18.38807592,-73.99212000
18.39063592,-78.46308000
18.39319592,-78.46308000
18.39575592,-78.46308000
18.39831592,-73.99212000
18.40087592,-73.99212000
18.40343592,-78.46308000
18.40599592,-78.46308000
18.40855592,-78.46308000
18.41111592,-78.46308000
18.41367592,-78.46308000
18.41623592,-73.99212000
18.41879592,-78.46308000
18.42135592,-78.46308000
18.42391592,-78.46308000
18.42647592,-73.99212000
18.42903592,-73.99212000
18.43159592,-78.46308000
18.43415592,-73.99212000
18.43671592,-78.46308000
18.43927592,-73.99212000
18.44183592,-78.46308000
18.44439592,-73.99212000
18.44695592,-73.99212000
18.44951592,-78.46308000
18.45207592,-73.99212000
18.45463592,-73.99212000
18.45719592,-73.99212000
18.45975592,-73.99212000
18.46231592,-73.99212000
18.46487592,-73.99212000
18.46743592,-73.99212000
18.46999592,-78.46308000
18.47255592,-73.99212000
18.47511592,-78.46308000
18.47767592,-78.46308000
18.48023592,-73.99212000
18.48279592,-73.99212000
18.48535592,-73.99212000
18.48791592,-73.99212000
18.49047592,-73.99212000
18.49303592,-73.99212000
18.49559592,-73.99212000
18.49815592,-73.99212000
18.50071592,-73.99212000
18.50327592,-73.99212000
18.50583592,-73.99212000
18.50839592,-73.99212000
18.51095592,-73.99212000
18.51351592,-73.99212000
18.51607592,-73.99212000
18.51863592,-78.46308000
18.52119592,-78.46308000
18.52375592,-73.99212000
18.52631592,-73.99212000
18.52887592,-73.99212000
18.53143592,-73.99212000
18.53399592,-69.50591000
18.53655592,-73.99212000
18.53911592,-73.99212000
18.54167592,-73.99212000
18.54423592,-73.99212000
18.54679592,-73.99212000
18.54935592,-78.46308000
18.55191592,-73.99212000
18.55447592,-78.46308000
18.55703592,-73.99212000
18.55959592,-73.99212000
18.56215592,-73.99212000
18.56471592,-78.46308000
18.56727592,-73.99212000
18.56983592,-73.99212000
18.57239592,-73.99212000
18.57495592,-73.99212000
18.57751592,-73.99212000
18.58007592,-73.99212000
18.58263592,-73.99212000
18.58519592,-73.99212000
18.58775592,-73.99212000
18.59031592,-73.99212000
18.59287592,-73.99212000
18.59543592,-73.99212000
18.59799592,-73.99212000
18.60055592,-73.99212000
18.60311592,-73.99212000
18.60567592,-73.99212000
18.60823592,-73.99212000
18.61079592,-73.99212000
18.61335592,-73.99212000
18.61591592,-73.99212000
18.61847592,-73.99212000
18.62103592,-73.99212000
18.62359592,-69.50591000
18.62615592,-73.99212000
18.62871592,-73.99212000
18.63127592,-73.99212000
18.63383592,-73.99212000
18.63639592,-73.99212000
18.63895592,-73.99212000
18.64151592,-73.99212000
18.64407592,-73.99212000
18.64663592,-73.99212000
18.64919592,-73.99212000
18.65175592,-73.99212000
18.65431592,-73.99212000
18.65687592,-78.46308000
18.65943592,-73.99212000
18.66199592,-69.50591000
18.66455592,-73.99212000
18.66711592,-73.99212000
18.66967592,-73.99212000
18.67223592,-73.99212000
18.67479592,-78.46308000
18.67735592,-78.46308000
18.67991592,-73.99212000
