Time,Invert B
(ms),(mV)

-1.32302695,-78.46308000
-1.32046695,-78.46308000
-1.31790695,-78.46308000
-1.31534695,-78.46308000
-1.31278695,-78.46308000
-1.31022695,-78.46308000
-1.30766695,-78.46308000
-1.30510695,-78.46308000
-1.30254695,-78.46308000
-1.29998695,-78.46308000
-1.29742695,-78.46308000
-1.29486695,-78.46308000
-1.29230695,-78.46308000
-1.28974695,-78.46308000
-1.28718695,-78.46308000
-1.28462695,-73.99212000
-1.28206695,-78.46308000
-1.27950695,-78.46308000
-1.27694695,-78.46308000
-1.27438695,-78.46308000
-1.27182695,-78.46308000
-1.26926695,-78.46308000
-1.26670695,-78.46308000
-1.26414695,-73.99212000
-1.26158695,-78.46308000
-1.25902695,-78.46308000
-1.25646695,-73.99212000
-1.25390695,-73.99212000
-1.25134695,-78.46308000
-1.24878695,-78.46308000
-1.24622695,-73.99212000
-1.24366695,-78.46308000
-1.24110695,-73.99212000
-1.23854695,-73.99212000
-1.23598695,-73.99212000
-1.23342695,-73.99212000
-1.23086695,-73.99212000
-1.22830695,-78.46308000
-1.22574695,-73.99212000
-1.22318695,-73.99212000
-1.22062695,-73.99212000
-1.21806695,-73.99212000
-1.21550695,-78.46308000
-1.21294695,-73.99212000
-1.21038695,-78.46308000
-1.20782695,-73.99212000
-1.20526695,-73.99212000
-1.20270695,-73.99212000
-1.20014695,-73.99212000
-1.19758695,-73.99212000
-1.19502695,-78.46308000
-1.19246695,-73.99212000
-1.18990696,-73.99212000
-1.18734696,-73.99212000
-1.18478696,-73.99212000
-1.18222696,-73.99212000
-1.17966696,-73.99212000
-1.17710696,-73.99212000
-1.17454696,-73.99212000
-1.17198696,-73.99212000
-1.16942696,-69.50591000
-1.16686696,-73.99212000
-1.16430696,-69.50591000
-1.16174696,-73.99212000
-1.15918696,-73.99212000
-1.15662696,-78.46308000
-1.15406696,-69.50591000
-1.15150696,-73.99212000
-1.14894696,-73.99212000
-1.14638696,-73.99212000
-1.14382696,-73.99212000
-1.14126696,-73.99212000
-1.13870696,-73.99212000
-1.13614696,-69.50591000
-1.13358696,-73.99212000
-1.13102696,-69.50591000
-1.12846696,-73.99212000
-1.12590696,-69.50591000
-1.12334696,-73.99212000
-1.12078696,-69.50591000
-1.11822696,-73.99212000
-1.11566696,-73.99212000
-1.11310696,-73.99212000
-1.11054696,-73.99212000
-1.10798696,-73.99212000
-1.10542696,-73.99212000
-1.10286696,-73.99212000
-1.10030696,-73.99212000
-1.09774696,-73.99212000
-1.09518696,-73.99212000
-1.09262696,-69.50591000
-1.09006696,-73.99212000
-1.08750696,-69.50591000
-1.08494696,-73.99212000
-1.08238696,-69.50591000
-1.07982696,-73.99212000
-1.07726696,-78.46308000
-1.07470696,-73.99212000
-1.07214696,-69.50591000
-1.06958696,-69.50591000
-1.06702696,-73.99212000
-1.06446696,-73.99212000
-1.06190696,-69.50591000
-1.05934696,-73.99212000
-1.05678696,-73.99212000
-1.05422696,-73.99212000
-1.05166696,-73.99212000
-1.04910696,-73.99212000
-1.04654696,-73.99212000
-1.04398696,-69.50591000
-1.04142696,-73.99212000
-1.03886696,-73.99212000
-1.03630696,-73.99212000
-1.03374696,-73.99212000
-1.03118696,-73.99212000
-1.02862696,-73.99212000
-1.02606696,-73.99212000
-1.02350696,-73.99212000
-1.02094696,-73.99212000
-1.01838696,-73.99212000
-1.01582696,-73.99212000
-1.01326696,-73.99212000
-1.01070696,-73.99212000
-1.00814696,-73.99212000
-1.00558696,-73.99212000
-1.00302696,-73.99212000
-1.00046696,-69.50591000
-0.99790696,-73.99212000
-0.99534696,-69.50591000
-0.99278696,-78.46308000
-0.99022696,-73.99212000
-0.98766696,-73.99212000
-0.98510696,-73.99212000
-0.98254696,-73.99212000
-0.97998696,-73.99212000
-0.97742696,-73.99212000
-0.97486696,-73.99212000
-0.97230696,-73.99212000
-0.96974696,-73.99212000
-0.96718696,-73.99212000
-0.96462696,-73.99212000
-0.96206696,-69.50591000
-0.95950696,-73.99212000
-0.95694696,-73.99212000
-0.95438696,-73.99212000
-0.95182696,-73.99212000
-0.94926696,-73.99212000
-0.94670696,-69.50591000
-0.94414696,-73.99212000
-0.94158696,-73.99212000
-0.93902696,-73.99212000
-0.93646696,-73.99212000
-0.93390696,-69.50591000
-0.93134696,-73.99212000
-0.92878696,-78.46308000
-0.92622696,-73.99212000
-0.92366696,-73.99212000
-0.92110696,-73.99212000
-0.91854696,-73.99212000
-0.91598696,-73.99212000
-0.91342696,-73.99212000
-0.91086696,-73.99212000
-0.90830696,-73.99212000
-0.90574696,-78.46308000
-0.90318696,-73.99212000
-0.90062696,-73.99212000
-0.89806696,-73.99212000
-0.89550696,-73.99212000
-0.89294696,-73.99212000
-0.89038696,-73.99212000
-0.88782696,-73.99212000
-0.88526696,-69.50591000
-0.88270696,-73.99212000
-0.88014696,-73.99212000
-0.87758696,-73.99212000
-0.87502696,-73.99212000
-0.87246696,-73.99212000
-0.86990696,-73.99212000
-0.86734696,-73.99212000
-0.86478696,-73.99212000
-0.86222696,-73.99212000
-0.85966696,-73.99212000
-0.85710696,-69.50591000
-0.85454696,-73.99212000
-0.85198696,-73.99212000
-0.84942696,-73.99212000
-0.84686696,-69.50591000
-0.84430696,-73.99212000
-0.84174696,-73.99212000
-0.83918696,-73.99212000
-0.83662696,-73.99212000
-0.83406696,-73.99212000
-0.83150696,-73.99212000
-0.82894696,-73.99212000
-0.82638696,-73.99212000
-0.82382696,-73.99212000
-0.82126696,-69.50591000
-0.81870696,-73.99212000
-0.81614696,-73.99212000
-0.81358696,-69.50591000
-0.81102696,-87.40501000
-0.80846696,-69.50591000
-0.80590696,-78.46308000
-0.80334696,-105.28880000
-0.80078696,-123.17270000
-0.79822696,-141.07180000
-0.79566696,-154.48470000
-0.79310696,-163.42660000
-0.79054696,-172.36850000
-0.78798696,-176.83950000
-0.78542696,-185.78140000
-0.78286696,-190.26760000
-0.78030696,-194.73860000
-0.77774696,-203.68050000
-0.77518696,-212.62240000
-0.77262696,-212.62240000
-0.77006696,-221.56440000
-0.76750696,-221.56440000
-0.76494696,-226.03530000
-0.76238696,-230.50630000
-0.75982696,-230.50630000
-0.75726696,-234.97720000
-0.75470696,-239.44820000
-0.75214696,-239.44820000
-0.74958696,-243.91920000
-0.74702696,-243.91920000
-0.74446696,-243.91920000
-0.74190696,-243.91920000
-0.73934696,-248.40540000
-0.73678696,-248.40540000
-0.73422696,-248.40540000
-0.73166696,-248.40540000
-0.72910696,-248.40540000
-0.72654696,-248.40540000
-0.72398696,-248.40540000
-0.72142696,-248.40540000
-0.71886696,-243.91920000
-0.71630696,-243.91920000
-0.71374696,-243.91920000
-0.71118696,-239.44820000
-0.70862696,-239.44820000
-0.70606696,-239.44820000
-0.70350696,-234.97720000
-0.70094696,-230.50630000
-0.69838696,-230.50630000
-0.69582696,-230.50630000
-0.69326696,-226.03530000
-0.69070696,-226.03530000
-0.68814696,-221.56440000
-0.68558696,-221.56440000
-0.68302696,-217.09340000
-0.68046696,-217.09340000
-0.67790696,-212.62240000
-0.67534696,-208.15150000
-0.67278696,-203.68050000
-0.67022696,-203.68050000
-0.66766696,-199.20960000
-0.66510696,-194.73860000
-0.66254696,-194.73860000
-0.65998696,-190.26760000
-0.65742696,-185.78140000
-0.65486696,-185.78140000
-0.65230696,-181.31050000
-0.64974696,-176.83950000
-0.64718696,-176.83950000
-0.64462696,-172.36850000
-0.64206696,-167.89760000
-0.63950696,-167.89760000
-0.63694696,-163.42660000
-0.63438696,-158.95570000
-0.63182696,-158.95570000
-0.62926696,-154.48470000
-0.62670696,-150.01370000
-0.62414696,-150.01370000
-0.62158696,-141.07180000
-0.61902696,-141.07180000
-0.61646696,-136.60080000
-0.61390696,-136.60080000
-0.61134696,-132.12990000
-0.60878696,-127.64370000
-0.60622696,-123.17270000
-0.60366696,-123.17270000
-0.60110696,-118.70170000
-0.59854696,-114.23080000
-0.59598696,-114.23080000
-0.59342696,-109.75980000
-0.59086696,-109.75980000
-0.58830696,-105.28880000
-0.58574696,-105.28880000
-0.58318696,-100.81790000
-0.58062696,-96.34693000
-0.57806696,-96.34693000
-0.57550696,-91.87596000
-0.57294696,-91.87596000
-0.57038696,-87.40501000
-0.56782696,-87.40501000
-0.56526696,-82.93404000
-0.56270696,-78.46308000
-0.56014696,-78.46308000
-0.55758696,-78.46308000
-0.55502696,-73.99212000
-0.55246696,-69.50591000
-0.54990696,-69.50591000
-0.54734696,-69.50591000
-0.54478696,-65.03493000
-0.54222696,-60.56398000
-0.53966696,-60.56398000
-0.53710696,-60.56398000
-0.53454696,-56.09302000
-0.53198696,-56.09302000
-0.52942696,-56.09302000
-0.52686696,-51.62206000
-0.52430696,-51.62206000
-0.52174696,-51.62206000
-0.51918696,-47.15109000
-0.51662696,-42.68013000
-0.51406696,-42.68013000
-0.51150696,-42.68013000
-0.50894696,-42.68013000
-0.50638696,-38.20917000
-0.50382696,-33.73821000
-0.50126696,-33.73821000
-0.49870696,-33.73821000
-0.49614696,-33.73821000
-0.49358696,-33.73821000
-0.49102696,-33.73821000
-0.48846696,-29.26725000
-0.48590696,-29.26725000
-0.48334696,-29.26725000
-0.48078696,-24.79629000
-0.47822696,-24.79629000
-0.47566696,-24.79629000
-0.47310696,-24.79629000
-0.47054696,-24.79629000
-0.46798696,-20.32533000
-0.46542696,-20.32533000
-0.46286696,-20.32533000
-0.46030696,-15.85437000
-0.45774696,-15.85437000
-0.45518696,-15.85437000
-0.45262696,-15.85437000
-0.45006696,-15.85437000
-0.44750696,-15.85437000
-0.44494696,-15.85437000
-0.44238696,-15.85437000
-0.43982696,-15.85437000
-0.43726696,-11.38340000
-0.43470696,-11.38340000
-0.43214696,-11.38340000
-0.42958696,-11.38340000
-0.42702696,-6.91244200
-0.42446696,-6.91244200
-0.42190696,-11.38340000
-0.41934696,-11.38340000
-0.41678696,-6.91244200
-0.41422696,-6.91244200
-0.41166696,-6.91244200
-0.40910696,-6.91244200
-0.40654696,-6.91244200
-0.40398696,-6.91244200
-0.40142696,-6.91244200
-0.39886696,-6.91244200
-0.39630696,-6.91244200
-0.39374696,-6.91244200
-0.39118696,-6.91244200
-0.38862696,-6.91244200
-0.38606696,-6.91244200
-0.38350696,-6.91244200
-0.38094696,-6.91244200
-0.37838696,-6.91244200
-0.37582696,-6.91244200
-0.37326696,-6.91244200
-0.37070696,-2.44148100
-0.36814696,-6.91244200
-0.36558696,-6.91244200
-0.36302696,-6.91244200
-0.36046696,-6.91244200
-0.35790696,-6.91244200
-0.35534696,-6.91244200
-0.35278696,-6.91244200
-0.35022696,-6.91244200
-0.34766696,-6.91244200
-0.34510696,-6.91244200
-0.34254696,-6.91244200
-0.33998696,-6.91244200
-0.33742696,-6.91244200
-0.33486696,-6.91244200
-0.33230696,-6.91244200
-0.32974696,-6.91244200
-0.32718696,-6.91244200
-0.32462696,-6.91244200
-0.32206696,-6.91244200
-0.31950696,-6.91244200
-0.31694696,-6.91244200
-0.31438696,-6.91244200
-0.31182696,-6.91244200
-0.30926696,-11.38340000
-0.30670696,-11.38340000
-0.30414696,-11.38340000
-0.30158696,-11.38340000
-0.29902696,-11.38340000
-0.29646696,-11.38340000
-0.29390696,-11.38340000
-0.29134696,-11.38340000
-0.28878696,37.79717000
-0.28622696,131.71790000
-0.28366696,216.69670000
-0.28110696,283.77640000
-0.27854696,328.50120000
-0.27598696,364.26890000
-0.27342696,391.10990000
-0.27086696,413.46470000
-0.26830696,431.34860000
-0.26574696,453.71870000
-0.26318696,467.13150000
-0.26062696,485.01540000
-0.25806696,498.42830000
-0.25550696,Infinity
-0.25294696,Infinity
-0.25038696,Infinity
-0.24782696,Infinity
-0.24526696,Infinity
-0.24270696,Infinity
-0.24014696,Infinity
-0.23758696,Infinity
-0.23502696,Infinity
-0.23246696,Infinity
-0.22990696,Infinity
-0.22734696,Infinity
-0.22478696,Infinity
-0.22222696,Infinity
-0.21966696,Infinity
-0.21710696,Infinity
-0.21454696,Infinity
-0.21198696,Infinity
-0.20942696,Infinity
-0.20686696,Infinity
-0.20430696,Infinity
-0.20174696,Infinity
-0.19918696,Infinity
-0.19662696,Infinity
-0.19406696,Infinity
-0.19150696,Infinity
-0.18894696,Infinity
-0.18638696,Infinity
-0.18382696,Infinity
-0.18126696,Infinity
-0.17870696,Infinity
-0.17614696,Infinity
-0.17358696,Infinity
-0.17102696,Infinity
-0.16846696,Infinity
-0.16590696,Infinity
-0.16334696,Infinity
-0.16078696,Infinity
-0.15822696,Infinity
-0.15566696,Infinity
-0.15310696,498.42830000
-0.15054696,489.48630000
-0.14798696,480.54440000
-0.14542696,471.60250000
-0.14286696,467.13150000
-0.14030696,453.71870000
-0.13774696,449.24770000
-0.13518696,435.81950000
-0.13262696,426.87760000
-0.13006696,417.93570000
-0.12750696,408.99380000
-0.12494696,395.58090000
-0.12238696,391.10990000
-0.11982696,382.15270000
-0.11726696,368.73990000
-0.11470696,359.79790000
-0.11214696,350.85600000
-0.10958696,341.91410000
-0.10702696,332.97220000
-0.10446696,324.01500000
-0.10190696,315.07310000
-0.09934696,306.13110000
-0.09678696,292.71830000
-0.09422696,288.24730000
-0.09166696,279.30540000
-0.08910696,265.87720000
-0.08654696,256.93530000
-0.08398696,247.99340000
-0.08142696,239.05150000
-0.07886696,230.10950000
-0.07630696,221.16760000
-0.07374696,212.21040000
-0.07118696,203.26850000
-0.06862696,194.32660000
-0.06606696,185.38470000
-0.06350696,176.44270000
-0.06094696,167.50080000
-0.05838696,163.02990000
-0.05582696,154.07270000
-0.05326696,145.13080000
-0.05070696,136.18880000
-0.04814696,127.24690000
-0.04558696,118.30500000
-0.04302696,109.36310000
-0.04046696,104.89210000
-0.03790696,95.93493000
-0.03534696,91.46397000
-0.03278696,82.52204000
-0.03022696,73.58012000
-0.02766696,64.63820000
-0.02510696,55.69627000
-0.02254696,55.69627000
-0.01998696,46.75435000
-0.01742696,37.79717000
-0.01486696,28.85525000
-0.01230696,24.38429000
-0.00974696,19.91333000
-0.00718696,10.97140000
-0.00462696,6.50044200
-0.00206696,2.02948100
0.00049304,-11.38340000
0.00305304,-15.85437000
0.00561304,-24.79629000
0.00817304,-24.79629000
0.01073304,-33.73821000
0.01329304,-33.73821000
0.01585304,-42.68013000
0.01841304,-47.15109000
0.02097304,-51.62206000
0.02353304,-60.56398000
0.02609304,-65.03493000
0.02865304,-69.50591000
0.03121304,-78.46308000
0.03377304,-78.46308000
0.03633304,-87.40501000
0.03889304,-91.87596000
0.04145304,-96.34693000
0.04401304,-100.81790000
0.04657304,-105.28880000
0.04913304,-109.75980000
0.05169304,-109.75980000
0.05425304,-118.70170000
0.05681304,-123.17270000
0.05937304,-123.17270000
0.06193304,-132.12990000
0.06449304,-132.12990000
0.06705304,-136.60080000
0.06961304,-141.07180000
0.07217304,-145.54280000
0.07473304,-150.01370000
0.07729304,-154.48470000
0.07985304,-154.48470000
0.08241304,-158.95570000
0.08497304,-163.42660000
0.08753304,-167.89760000
0.09009304,-167.89760000
0.09265304,-167.89760000
0.09521304,-176.83950000
0.09777304,-176.83950000
0.10033304,-176.83950000
0.10289304,-185.78140000
0.10545304,-185.78140000
0.10801304,-185.78140000
0.11057304,-190.26760000
0.11313304,-194.73860000
0.11569304,-194.73860000
0.11825304,-199.20960000
0.12081304,-203.68050000
0.12337304,-203.68050000
0.12593304,-208.15150000
0.12849304,-208.15150000
0.13105304,-208.15150000
0.13361304,-212.62240000
0.13617304,-212.62240000
0.13873304,-217.09340000
0.14129304,-221.56440000
0.14385304,-221.56440000
0.14641304,-221.56440000
0.14897304,-226.03530000
0.15153304,-226.03530000
0.15409304,-226.03530000
0.15665304,-226.03530000
0.15921304,-230.50630000
0.16177304,-230.50630000
0.16433304,-230.50630000
0.16689304,-234.97720000
0.16945304,-234.97720000
0.17201304,-239.44820000
0.17457304,-239.44820000
0.17713304,-239.44820000
0.17969304,-239.44820000
0.18225304,-243.91920000
0.18481304,-243.91920000
0.18737304,-243.91920000
0.18993304,-248.40540000
0.19249304,-248.40540000
0.19505304,-248.40540000
0.19761304,-248.40540000
0.20017304,-248.40540000
0.20273304,-248.40540000
0.20529304,-248.40540000
0.20785304,-248.40540000
0.21041304,-248.40540000
0.21297304,-252.87640000
0.21553304,-248.40540000
0.21809304,-252.87640000
0.22065304,-252.87640000
0.22321304,-257.34730000
0.22577304,-257.34730000
0.22833304,-257.34730000
0.23089304,-257.34730000
0.23345304,-257.34730000
0.23601304,-257.34730000
0.23857304,-257.34730000
0.24113304,-257.34730000
0.24369304,-257.34730000
0.24625304,-257.34730000
0.24881304,-257.34730000
0.25137304,-257.34730000
0.25393304,-257.34730000
0.25649304,-257.34730000
0.25905304,-261.81830000
0.26161304,-261.81830000
0.26417304,-261.81830000
0.26673304,-257.34730000
0.26929304,-261.81830000
0.27185304,-257.34730000
0.27441304,-261.81830000
0.27697304,-261.81830000
0.27953304,-257.34730000
0.28209304,-261.81830000
0.28465304,-261.81830000
0.28721304,-257.34730000
0.28977304,-261.81830000
0.29233304,-257.34730000
0.29489304,-257.34730000
0.29745304,-257.34730000
0.30001304,-257.34730000
0.30257304,-257.34730000
0.30513304,-257.34730000
0.30769304,-257.34730000
0.31025304,-257.34730000
0.31281304,-257.34730000
0.31537304,-257.34730000
0.31793304,-257.34730000
0.32049304,-257.34730000
0.32305304,-257.34730000
0.32561304,-257.34730000
0.32817304,-257.34730000
0.33073304,-257.34730000
0.33329304,-252.87640000
0.33585304,-252.87640000
0.33841304,-257.34730000
0.34097304,-252.87640000
0.34353304,-252.87640000
0.34609304,-252.87640000
0.34865304,-252.87640000
0.35121304,-252.87640000
0.35377304,-248.40540000
0.35633304,-248.40540000
0.35889304,-248.40540000
0.36145304,-248.40540000
0.36401304,-248.40540000
0.36657304,-248.40540000
0.36913304,-248.40540000
0.37169304,-248.40540000
0.37425304,-248.40540000
0.37681304,-248.40540000
0.37937304,-248.40540000
0.38193304,-248.40540000
0.38449304,-248.40540000
0.38705304,-243.91920000
0.38961304,-243.91920000
0.39217304,-243.91920000
0.39473304,-243.91920000
0.39729304,-239.44820000
0.39985304,-239.44820000
0.40241304,-239.44820000
0.40497304,-243.91920000
0.40753304,-239.44820000
0.41009304,-239.44820000
0.41265304,-239.44820000
0.41521304,-239.44820000
0.41777304,-239.44820000
0.42033304,-239.44820000
0.42289304,-239.44820000
0.42545304,-239.44820000
0.42801304,-230.50630000
0.43057304,-234.97720000
0.43313304,-230.50630000
0.43569304,-230.50630000
0.43825304,-230.50630000
0.44081304,-230.50630000
0.44337304,-230.50630000
0.44593304,-230.50630000
0.44849304,-230.50630000
0.45105304,-230.50630000
0.45361304,-230.50630000
0.45617303,-230.50630000
0.45873303,-230.50630000
0.46129303,-226.03530000
0.46385303,-226.03530000
0.46641303,-230.50630000
0.46897303,-226.03530000
0.47153303,-226.03530000
0.47409303,-221.56440000
0.47665303,-226.03530000
0.47921303,-221.56440000
0.48177303,-221.56440000
0.48433303,-221.56440000
0.48689303,-221.56440000
0.48945303,-221.56440000
0.49201303,-221.56440000
0.49457303,-221.56440000
0.49713303,-221.56440000
0.49969303,-217.09340000
0.50225303,-217.09340000
0.50481303,-217.09340000
0.50737303,-212.62240000
0.50993303,-212.62240000
0.51249303,-212.62240000
0.51505303,-212.62240000
0.51761303,-212.62240000
0.52017303,-212.62240000
0.52273303,-208.15150000
0.52529303,-212.62240000
0.52785303,-208.15150000
0.53041303,-208.15150000
0.53297303,-208.15150000
0.53553303,-208.15150000
0.53809303,-208.15150000
0.54065303,-203.68050000
0.54321303,-203.68050000
0.54577303,-203.68050000
0.54833303,-203.68050000
0.55089303,-203.68050000
0.55345303,-203.68050000
0.55601303,-203.68050000
0.55857303,-203.68050000
0.56113303,-199.20960000
0.56369303,-199.20960000
0.56625303,-199.20960000
0.56881303,-199.20960000
0.57137303,-199.20960000
0.57393303,-194.73860000
0.57649303,-194.73860000
0.57905303,-194.73860000
0.58161303,-194.73860000
0.58417303,-194.73860000
0.58673303,-194.73860000
0.58929303,-194.73860000
0.59185303,-194.73860000
0.59441303,-194.73860000
0.59697303,-190.26760000
0.59953303,-190.26760000
0.60209303,-190.26760000
0.60465303,-185.78140000
0.60721303,-185.78140000
0.60977303,-185.78140000
0.61233303,-185.78140000
0.61489303,-185.78140000
0.61745303,-185.78140000
0.62001303,-185.78140000
0.62257303,-185.78140000
0.62513303,-181.31050000
0.62769303,-181.31050000
0.63025303,-181.31050000
0.63281303,-181.31050000
0.63537303,-181.31050000
0.63793303,-176.83950000
0.64049303,-176.83950000
0.64305303,-176.83950000
0.64561303,-176.83950000
0.64817303,-176.83950000
0.65073303,-176.83950000
0.65329303,-176.83950000
0.65585303,-176.83950000
0.65841303,-176.83950000
0.66097303,-176.83950000
0.66353303,-176.83950000
0.66609303,-172.36850000
0.66865303,-172.36850000
0.67121303,-172.36850000
0.67377303,-172.36850000
0.67633303,-172.36850000
0.67889303,-167.89760000
0.68145303,-167.89760000
0.68401303,-167.89760000
0.68657303,-167.89760000
0.68913303,-167.89760000
0.69169303,-167.89760000
0.69425303,-167.89760000
0.69681303,-167.89760000
0.69937303,-167.89760000
0.70193303,-167.89760000
0.70449303,-163.42660000
0.70705303,-163.42660000
0.70961303,-163.42660000
0.71217303,-163.42660000
0.71473303,-163.42660000
0.71729303,-158.95570000
0.71985303,-158.95570000
0.72241303,-158.95570000
0.72497303,-158.95570000
0.72753303,-158.95570000
0.73009303,-158.95570000
0.73265303,-158.95570000
0.73521303,-158.95570000
0.73777303,-158.95570000
0.74033303,-158.95570000
0.74289303,-158.95570000
0.74545303,-158.95570000
0.74801303,-154.48470000
0.75057303,-158.95570000
0.75313303,-154.48470000
0.75569303,-154.48470000
0.75825303,-154.48470000
0.76081303,-154.48470000
0.76337303,-154.48470000
0.76593303,-154.48470000
0.76849303,-150.01370000
0.77105303,-154.48470000
0.77361303,-154.48470000
0.77617303,-150.01370000
0.77873303,-150.01370000
0.78129303,-150.01370000
0.78385303,-150.01370000
0.78641303,-150.01370000
0.78897303,-150.01370000
0.79153303,-150.01370000
0.79409303,-150.01370000
0.79665303,-150.01370000
0.79921303,-150.01370000
0.80177303,-150.01370000
0.80433303,-145.54280000
0.80689303,-145.54280000
0.80945303,-145.54280000
0.81201303,-141.07180000
0.81457303,-145.54280000
0.81713303,-145.54280000
0.81969303,-141.07180000
0.82225303,-141.07180000
0.82481303,-141.07180000
0.82737303,-141.07180000
0.82993303,-141.07180000
0.83249303,-141.07180000
0.83505303,-141.07180000
0.83761303,-141.07180000
0.84017303,-141.07180000
0.84273303,-141.07180000
0.84529303,-141.07180000
0.84785303,-141.07180000
0.85041303,-141.07180000
0.85297303,-136.60080000
0.85553303,-141.07180000
0.85809303,-136.60080000
0.86065303,-141.07180000
0.86321303,-136.60080000
0.86577303,-136.60080000
0.86833303,-136.60080000
0.87089303,-136.60080000
0.87345303,-136.60080000
0.87601303,-136.60080000
0.87857303,-132.12990000
0.88113303,-132.12990000
0.88369303,-132.12990000
0.88625303,-132.12990000
0.88881303,-132.12990000
0.89137303,-132.12990000
0.89393303,-132.12990000
0.89649303,-132.12990000
0.89905303,-132.12990000
0.90161303,-132.12990000
0.90417303,-132.12990000
0.90673303,-132.12990000
0.90929303,-132.12990000
0.91185303,-132.12990000
0.91441303,-132.12990000
0.91697303,-127.64370000
0.91953303,-132.12990000
0.92209303,-127.64370000
0.92465303,-123.17270000
0.92721303,-127.64370000
0.92977303,-127.64370000
0.93233303,-127.64370000
0.93489303,-123.17270000
0.93745303,-123.17270000
0.94001303,-123.17270000
0.94257303,-123.17270000
0.94513303,-123.17270000
0.94769303,-123.17270000
0.95025303,-123.17270000
0.95281303,-123.17270000
0.95537303,-123.17270000
0.95793303,-123.17270000
0.96049303,-123.17270000
0.96305303,-123.17270000
0.96561303,-123.17270000
0.96817303,-123.17270000
0.97073303,-123.17270000
0.97329303,-123.17270000
0.97585303,-123.17270000
0.97841303,-118.70170000
0.98097303,-118.70170000
0.98353303,-123.17270000
0.98609303,-123.17270000
0.98865303,-123.17270000
0.99121303,-118.70170000
0.99377303,-118.70170000
0.99633303,-118.70170000
0.99889303,-118.70170000
1.00145303,-118.70170000
1.00401303,-114.23080000
1.00657303,-118.70170000
1.00913303,-118.70170000
1.01169303,-118.70170000
1.01425303,-118.70170000
1.01681303,-118.70170000
1.01937303,-114.23080000
1.02193303,-118.70170000
1.02449303,-114.23080000
1.02705303,-114.23080000
1.02961303,-114.23080000
1.03217303,-114.23080000
1.03473303,-114.23080000
1.03729303,-118.70170000
1.03985303,-114.23080000
1.04241303,-114.23080000
1.04497303,-114.23080000
1.04753303,-114.23080000
1.05009303,-114.23080000
1.05265303,-114.23080000
1.05521303,-114.23080000
1.05777303,-114.23080000
1.06033303,-114.23080000
1.06289303,-114.23080000
1.06545303,-114.23080000
1.06801303,-114.23080000
1.07057303,-114.23080000
1.07313303,-114.23080000
1.07569303,-114.23080000
1.07825303,-114.23080000
1.08081303,-109.75980000
1.08337303,-109.75980000
1.08593303,-109.75980000
1.08849303,-114.23080000
1.09105303,-109.75980000
1.09361303,-109.75980000
1.09617303,-105.28880000
1.09873303,-109.75980000
1.10129303,-109.75980000
1.10385303,-105.28880000
1.10641303,-105.28880000
1.10897303,-105.28880000
1.11153303,-105.28880000
1.11409303,-109.75980000
1.11665303,-105.28880000
1.11921303,-105.28880000
1.12177303,-105.28880000
1.12433303,-105.28880000
1.12689303,-105.28880000
1.12945303,-105.28880000
1.13201303,-105.28880000
1.13457303,-105.28880000
1.13713303,-105.28880000
1.13969303,-105.28880000
1.14225303,-105.28880000
1.14481303,-105.28880000
1.14737303,-105.28880000
1.14993303,-105.28880000
1.15249303,-105.28880000
1.15505303,-105.28880000
1.15761303,-105.28880000
1.16017303,-105.28880000
1.16273303,-105.28880000
1.16529303,-100.81790000
1.16785303,-100.81790000
1.17041303,-100.81790000
1.17297303,-100.81790000
1.17553303,-100.81790000
1.17809303,-105.28880000
1.18065303,-100.81790000
1.18321303,-100.81790000
1.18577303,-100.81790000
1.18833303,-96.34693000
1.19089303,-96.34693000
1.19345303,-100.81790000
1.19601303,-100.81790000
1.19857303,-96.34693000
1.20113303,-100.81790000
1.20369303,-100.81790000
1.20625303,-96.34693000
1.20881303,-96.34693000
1.21137303,-96.34693000
1.21393303,-96.34693000
1.21649303,-96.34693000
1.21905303,-96.34693000
1.22161303,-96.34693000
1.22417303,-96.34693000
1.22673303,-96.34693000
1.22929303,-96.34693000
1.23185303,-96.34693000
1.23441303,-96.34693000
1.23697303,-96.34693000
1.23953303,-96.34693000
1.24209303,-96.34693000
1.24465303,-96.34693000
1.24721303,-96.34693000
1.24977303,-96.34693000
1.25233303,-96.34693000
1.25489303,-96.34693000
1.25745303,-91.87596000
1.26001303,-91.87596000
1.26257303,-96.34693000
1.26513303,-96.34693000
1.26769303,-96.34693000
1.27025303,-96.34693000
1.27281303,-96.34693000
1.27537303,-91.87596000
1.27793303,-96.34693000
1.28049303,-91.87596000
1.28305303,-91.87596000
1.28561303,-91.87596000
1.28817303,-96.34693000
1.29073303,-96.34693000
1.29329303,-91.87596000
1.29585303,-91.87596000
1.29841303,-91.87596000
1.30097303,-91.87596000
1.30353303,-91.87596000
1.30609303,-87.40501000
1.30865303,-91.87596000
1.31121303,-91.87596000
1.31377303,-87.40501000
1.31633303,-91.87596000
1.31889303,-91.87596000
1.32145303,-87.40501000
1.32401303,-91.87596000
1.32657303,-87.40501000
1.32913303,-87.40501000
1.33169303,-87.40501000
1.33425303,-87.40501000
1.33681303,-87.40501000
1.33937303,-87.40501000
1.34193303,-87.40501000
1.34449303,-87.40501000
1.34705303,-87.40501000
1.34961303,-87.40501000
1.35217303,-87.40501000
1.35473303,-87.40501000
1.35729303,-87.40501000
1.35985303,-87.40501000
1.36241303,-87.40501000
1.36497303,-87.40501000
1.36753303,-87.40501000
1.37009303,-87.40501000
1.37265303,-87.40501000
1.37521303,-87.40501000
1.37777303,-87.40501000
1.38033303,-87.40501000
1.38289303,-87.40501000
1.38545303,-87.40501000
1.38801303,-87.40501000
1.39057303,-87.40501000
1.39313303,-87.40501000
1.39569303,-87.40501000
1.39825303,-87.40501000
1.40081303,-87.40501000
1.40337303,-82.93404000
1.40593303,-87.40501000
1.40849303,-87.40501000
1.41105303,-82.93404000
1.41361303,-87.40501000
1.41617303,-87.40501000
1.41873303,-87.40501000
1.42129303,-87.40501000
1.42385303,-87.40501000
1.42641303,-87.40501000
1.42897303,-87.40501000
1.43153303,-87.40501000
1.43409303,-87.40501000
1.43665303,-87.40501000
1.43921303,-87.40501000
1.44177303,-82.93404000
1.44433303,-82.93404000
1.44689303,-82.93404000
1.44945303,-82.93404000
1.45201303,-82.93404000
1.45457303,-82.93404000
1.45713303,-82.93404000
1.45969303,-82.93404000
1.46225303,-82.93404000
1.46481303,-82.93404000
1.46737303,-82.93404000
1.46993303,-82.93404000
1.47249303,-87.40501000
1.47505303,-82.93404000
1.47761303,-82.93404000
1.48017303,-82.93404000
1.48273303,-82.93404000
1.48529303,-87.40501000
1.48785303,-82.93404000
1.49041303,-82.93404000
1.49297303,-82.93404000
1.49553303,-82.93404000
1.49809303,-82.93404000
1.50065303,-82.93404000
1.50321303,-82.93404000
1.50577303,-87.40501000
1.50833303,-82.93404000
1.51089303,-82.93404000
1.51345303,-82.93404000
1.51601303,-82.93404000
1.51857303,-82.93404000
1.52113303,-82.93404000
1.52369303,-82.93404000
1.52625303,-82.93404000
1.52881303,-82.93404000
1.53137303,-82.93404000
1.53393303,-78.46308000
1.53649303,-82.93404000
1.53905303,-82.93404000
1.54161303,-78.46308000
1.54417303,-82.93404000
1.54673303,-78.46308000
1.54929303,-82.93404000
1.55185303,-78.46308000
1.55441303,-78.46308000
1.55697303,-82.93404000
1.55953303,-82.93404000
1.56209303,-78.46308000
1.56465303,-82.93404000
1.56721303,-82.93404000
1.56977303,-82.93404000
1.57233303,-78.46308000
1.57489303,-82.93404000
1.57745303,-78.46308000
1.58001303,-78.46308000
1.58257303,-78.46308000
1.58513303,-78.46308000
1.58769303,-78.46308000
1.59025303,-78.46308000
1.59281303,-78.46308000
1.59537303,-78.46308000
1.59793303,-78.46308000
1.60049303,-78.46308000
1.60305303,-78.46308000
1.60561303,-78.46308000
1.60817303,-78.46308000
1.61073303,-78.46308000
1.61329303,-78.46308000
1.61585303,-78.46308000
1.61841303,-78.46308000
1.62097303,-78.46308000
1.62353303,-78.46308000
1.62609303,-78.46308000
1.62865303,-78.46308000
1.63121303,-78.46308000
1.63377303,-78.46308000
1.63633303,-78.46308000
1.63889303,-78.46308000
1.64145303,-78.46308000
1.64401303,-78.46308000
1.64657303,-78.46308000
1.64913303,-78.46308000
1.65169303,-78.46308000
1.65425303,-78.46308000
1.65681303,-78.46308000
1.65937303,-78.46308000
1.66193303,-78.46308000
1.66449303,-78.46308000
1.66705303,-78.46308000
1.66961303,-78.46308000
1.67217303,-78.46308000
1.67473303,-78.46308000
1.67729303,-78.46308000
1.67985303,-78.46308000
1.68241303,-78.46308000
1.68497303,-78.46308000
1.68753303,-78.46308000
1.69009303,-78.46308000
1.69265303,-78.46308000
1.69521303,-78.46308000
1.69777303,-78.46308000
1.70033303,-78.46308000
1.70289303,-78.46308000
1.70545303,-73.99212000
1.70801303,-78.46308000
1.71057303,-78.46308000
1.71313303,-78.46308000
1.71569303,-78.46308000
1.71825303,-78.46308000
1.72081303,-78.46308000
1.72337303,-73.99212000
1.72593303,-73.99212000
1.72849303,-78.46308000
1.73105303,-78.46308000
1.73361303,-78.46308000
1.73617303,-73.99212000
1.73873303,-78.46308000
1.74129303,-73.99212000
1.74385303,-78.46308000
1.74641303,-73.99212000
1.74897303,-78.46308000
1.75153303,-78.46308000
1.75409303,-73.99212000
1.75665303,-73.99212000
1.75921303,-73.99212000
1.76177303,-78.46308000
1.76433303,-73.99212000
1.76689303,-78.46308000
1.76945303,-73.99212000
1.77201303,-73.99212000
1.77457303,-73.99212000
1.77713303,-78.46308000
1.77969303,-73.99212000
1.78225303,-73.99212000
1.78481303,-73.99212000
1.78737303,-73.99212000
1.78993303,-73.99212000
1.79249303,-73.99212000
1.79505303,-73.99212000
1.79761303,-73.99212000
1.80017303,-73.99212000
1.80273303,-78.46308000
1.80529303,-73.99212000
1.80785303,-78.46308000
1.81041303,-78.46308000
1.81297303,-73.99212000
1.81553303,-73.99212000
1.81809303,-73.99212000
1.82065303,-73.99212000
1.82321303,-73.99212000
1.82577303,-73.99212000
1.82833303,-73.99212000
1.83089303,-69.50591000
1.83345303,-73.99212000
1.83601303,-73.99212000
1.83857303,-73.99212000
1.84113303,-73.99212000
1.84369303,-73.99212000
1.84625303,-73.99212000
1.84881303,-69.50591000
1.85137303,-73.99212000
1.85393303,-73.99212000
1.85649303,-73.99212000
1.85905303,-73.99212000
1.86161303,-73.99212000
1.86417303,-73.99212000
1.86673303,-73.99212000
1.86929303,-73.99212000
1.87185303,-73.99212000
1.87441303,-69.50591000
1.87697303,-73.99212000
1.87953303,-73.99212000
1.88209303,-69.50591000
1.88465303,-73.99212000
1.88721303,-73.99212000
1.88977303,-78.46308000
1.89233303,-73.99212000
1.89489303,-73.99212000
1.89745303,-73.99212000
1.90001303,-73.99212000
1.90257303,-73.99212000
1.90513303,-73.99212000
1.90769303,-73.99212000
1.91025303,-73.99212000
1.91281303,-73.99212000
1.91537303,-73.99212000
1.91793303,-73.99212000
1.92049303,-73.99212000
1.92305303,-73.99212000
1.92561303,-73.99212000
1.92817303,-73.99212000
1.93073303,-73.99212000
1.93329303,-73.99212000
1.93585303,-73.99212000
1.93841303,-73.99212000
1.94097303,-73.99212000
1.94353303,-73.99212000
1.94609303,-78.46308000
1.94865303,-73.99212000
1.95121303,-73.99212000
1.95377303,-73.99212000
1.95633303,-73.99212000
1.95889303,-73.99212000
1.96145303,-73.99212000
1.96401303,-73.99212000
1.96657303,-78.46308000
1.96913303,-73.99212000
1.97169303,-73.99212000
1.97425303,-73.99212000
1.97681303,-73.99212000
1.97937303,-69.50591000
1.98193303,-73.99212000
1.98449303,-73.99212000
1.98705303,-69.50591000
1.98961303,-73.99212000
1.99217303,-73.99212000
1.99473303,-73.99212000
1.99729303,-73.99212000
1.99985303,-73.99212000
2.00241303,-73.99212000
2.00497303,-73.99212000
2.00753303,-73.99212000
2.01009303,-73.99212000
2.01265303,-73.99212000
2.01521303,-73.99212000
2.01777303,-73.99212000
2.02033303,-73.99212000
2.02289303,-73.99212000
2.02545303,-73.99212000
2.02801303,-78.46308000
2.03057303,-73.99212000
2.03313303,-73.99212000
2.03569303,-69.50591000
2.03825303,-69.50591000
2.04081303,-73.99212000
2.04337303,-73.99212000
2.04593303,-69.50591000
2.04849303,-73.99212000
2.05105303,-73.99212000
2.05361303,-73.99212000
2.05617303,-73.99212000
2.05873303,-73.99212000
2.06129303,-73.99212000
2.06385303,-73.99212000
2.06641303,-73.99212000
2.06897303,-73.99212000
2.07153303,-73.99212000
2.07409303,-73.99212000
2.07665303,-69.50591000
2.07921303,-73.99212000
2.08177303,-73.99212000
2.08433303,-73.99212000
2.08689303,-73.99212000
2.08945303,-73.99212000
2.09201303,-73.99212000
2.09457303,-73.99212000
2.09713303,-73.99212000
2.09969303,-73.99212000
2.10225302,-73.99212000
2.10481302,-73.99212000
2.10737302,-73.99212000
2.10993302,-78.46308000
2.11249302,-78.46308000
2.11505302,-73.99212000
2.11761302,-73.99212000
2.12017302,-73.99212000
2.12273302,-73.99212000
2.12529302,-73.99212000
2.12785302,-73.99212000
2.13041302,-78.46308000
2.13297302,-73.99212000
2.13553302,-78.46308000
2.13809302,-73.99212000
2.14065302,-73.99212000
2.14321302,-78.46308000
2.14577302,-73.99212000
2.14833302,-73.99212000
2.15089302,-78.46308000
2.15345302,-78.46308000
2.15601302,-78.46308000
2.15857302,-78.46308000
2.16113302,-78.46308000
2.16369302,-78.46308000
2.16625302,-78.46308000
2.16881302,-78.46308000
2.17137302,-78.46308000
2.17393302,-78.46308000
2.17649302,-78.46308000
2.17905302,-78.46308000
2.18161302,-78.46308000
2.18417302,-78.46308000
2.18673302,-78.46308000
2.18929302,-78.46308000
2.19185302,-78.46308000
2.19441302,-78.46308000
2.19697302,-82.93404000
2.19953302,-78.46308000
2.20209302,-78.46308000
2.20465302,-78.46308000
2.20721302,-82.93404000
2.20977302,-82.93404000
2.21233302,-82.93404000
2.21489302,-82.93404000
2.21745302,-82.93404000
2.22001302,-82.93404000
2.22257302,-82.93404000
2.22513302,-87.40501000
2.22769302,-87.40501000
2.23025302,-87.40501000
2.23281302,-87.40501000
2.23537302,-87.40501000
2.23793302,-87.40501000
2.24049302,-87.40501000
2.24305302,-87.40501000
2.24561302,-87.40501000
2.24817302,-87.40501000
2.25073302,-87.40501000
2.25329302,-87.40501000
2.25585302,-91.87596000
2.25841302,-91.87596000
2.26097302,-91.87596000
2.26353302,-91.87596000
2.26609302,-96.34693000
2.26865302,-96.34693000
2.27121302,-96.34693000
2.27377302,-96.34693000
2.27633302,-96.34693000
2.27889302,-96.34693000
2.28145302,-96.34693000
2.28401302,-96.34693000
2.28657302,-100.81790000
2.28913302,-100.81790000
2.29169302,-100.81790000
2.29425302,-100.81790000
2.29681302,-100.81790000
2.29937302,-100.81790000
2.30193302,-100.81790000
2.30449302,-100.81790000
2.30705302,-105.28880000
2.30961302,-100.81790000
2.31217302,-105.28880000
2.31473302,-105.28880000
2.31729302,-105.28880000
2.31985302,-105.28880000
2.32241302,-105.28880000
2.32497302,-105.28880000
2.32753302,-105.28880000
2.33009302,-105.28880000
2.33265302,-105.28880000
2.33521302,-105.28880000
2.33777302,-105.28880000
2.34033302,-109.75980000
2.34289302,-105.28880000
2.34545302,-105.28880000
2.34801302,-105.28880000
2.35057302,-109.75980000
2.35313302,-109.75980000
2.35569302,-109.75980000
2.35825302,-109.75980000
2.36081302,-109.75980000
2.36337302,-109.75980000
2.36593302,-114.23080000
2.36849302,-114.23080000
2.37105302,-114.23080000
2.37361302,-114.23080000
2.37617302,-114.23080000
2.37873302,-114.23080000
2.38129302,-114.23080000
2.38385302,-114.23080000
2.38641302,-114.23080000
2.38897302,-114.23080000
2.39153302,-114.23080000
2.39409302,-114.23080000
2.39665302,-114.23080000
2.39921302,-114.23080000
2.40177302,-114.23080000
2.40433302,-114.23080000
2.40689302,-118.70170000
2.40945302,-114.23080000
2.41201302,-114.23080000
2.41457302,-118.70170000
2.41713302,-118.70170000
2.41969302,-118.70170000
2.42225302,-114.23080000
2.42481302,-118.70170000
2.42737302,-118.70170000
2.42993302,-118.70170000
2.43249302,-118.70170000
2.43505302,-118.70170000
2.43761302,-118.70170000
2.44017302,-118.70170000
2.44273302,-118.70170000
2.44529302,-118.70170000
2.44785302,-118.70170000
2.45041302,-118.70170000
2.45297302,-118.70170000
2.45553302,-118.70170000
2.45809302,-118.70170000
2.46065302,-118.70170000
2.46321302,-118.70170000
2.46577302,-118.70170000
2.46833302,-118.70170000
2.47089302,-118.70170000
2.47345302,-118.70170000
2.47601302,-118.70170000
2.47857302,-118.70170000
2.48113302,-118.70170000
2.48369302,-118.70170000
2.48625302,-118.70170000
2.48881302,-118.70170000
2.49137302,-118.70170000
2.49393302,-118.70170000
2.49649302,-118.70170000
2.49905302,-118.70170000
2.50161302,-118.70170000
2.50417302,-118.70170000
2.50673302,-114.23080000
2.50929302,-114.23080000
2.51185302,-118.70170000
2.51441302,-118.70170000
2.51697302,-118.70170000
2.51953302,-114.23080000
2.52209302,-118.70170000
2.52465302,-118.70170000
2.52721302,-118.70170000
2.52977302,-114.23080000
2.53233302,-114.23080000
2.53489302,-114.23080000
2.53745302,-114.23080000
2.54001302,-114.23080000
2.54257302,-114.23080000
2.54513302,-114.23080000
2.54769302,-114.23080000
2.55025302,-114.23080000
2.55281302,-114.23080000
2.55537302,-114.23080000
2.55793302,-114.23080000
2.56049302,-114.23080000
2.56305302,-114.23080000
2.56561302,-114.23080000
2.56817302,-114.23080000
2.57073302,-114.23080000
2.57329302,-114.23080000
2.57585302,-114.23080000
2.57841302,-114.23080000
2.58097302,-114.23080000
2.58353302,-114.23080000
2.58609302,-114.23080000
2.58865302,-114.23080000
2.59121302,-109.75980000
2.59377302,-114.23080000
2.59633302,-109.75980000
2.59889302,-114.23080000
2.60145302,-109.75980000
2.60401302,-109.75980000
2.60657302,-109.75980000
2.60913302,-105.28880000
2.61169302,-109.75980000
2.61425302,-109.75980000
2.61681302,-109.75980000
2.61937302,-109.75980000
2.62193302,-105.28880000
2.62449302,-105.28880000
2.62705302,-105.28880000
2.62961302,-105.28880000
2.63217302,-105.28880000
2.63473302,-105.28880000
2.63729302,-105.28880000
2.63985302,-105.28880000
2.64241302,-105.28880000
2.64497302,-105.28880000
2.64753302,-105.28880000
2.65009302,-105.28880000
2.65265302,-105.28880000
2.65521302,-105.28880000
2.65777302,-100.81790000
2.66033302,-100.81790000
2.66289302,-100.81790000
2.66545302,-100.81790000
2.66801302,-100.81790000
2.67057302,-100.81790000
2.67313302,-100.81790000
2.67569302,-100.81790000
2.67825302,-96.34693000
2.68081302,-96.34693000
2.68337302,-100.81790000
2.68593302,-100.81790000
2.68849302,-96.34693000
2.69105302,-96.34693000
2.69361302,-96.34693000
2.69617302,-96.34693000
2.69873302,-96.34693000
2.70129302,-96.34693000
2.70385302,-96.34693000
2.70641302,-96.34693000
2.70897302,-91.87596000
2.71153302,-91.87596000
2.71409302,-91.87596000
2.71665302,-87.40501000
2.71921302,-87.40501000
2.72177302,-87.40501000
2.72433302,-87.40501000
2.72689302,-87.40501000
2.72945302,-87.40501000
2.73201302,-87.40501000
2.73457302,-87.40501000
2.73713302,-87.40501000
2.73969302,-82.93404000
2.74225302,-82.93404000
2.74481302,-82.93404000
2.74737302,-82.93404000
2.74993302,-82.93404000
2.75249302,-82.93404000
2.75505302,-78.46308000
2.75761302,-78.46308000
2.76017302,-78.46308000
2.76273302,-78.46308000
2.76529302,-78.46308000
2.76785302,-73.99212000
2.77041302,-73.99212000
2.77297302,-69.50591000
2.77553302,-69.50591000
2.77809302,-69.50591000
2.78065302,-69.50591000
2.78321302,-69.50591000
2.78577302,-69.50591000
2.78833302,-69.50591000
2.79089302,-65.03493000
2.79345302,-65.03493000
2.79601302,-65.03493000
2.79857302,-65.03493000
2.80113302,-65.03493000
2.80369302,-60.56398000
2.80625302,-60.56398000
2.80881302,-60.56398000
2.81137302,-60.56398000
2.81393302,-60.56398000
2.81649302,-60.56398000
2.81905302,-60.56398000
2.82161302,-56.09302000
2.82417302,-51.62206000
2.82673302,-51.62206000
2.82929302,-51.62206000
2.83185302,-51.62206000
2.83441302,-51.62206000
2.83697302,-51.62206000
2.83953302,-51.62206000
2.84209302,-51.62206000
2.84465302,-51.62206000
2.84721302,-47.15109000
2.84977302,-47.15109000
2.85233302,-47.15109000
2.85489302,-47.15109000
2.85745302,-42.68013000
2.86001302,-42.68013000
2.86257302,-42.68013000
2.86513302,-42.68013000
2.86769302,-42.68013000
2.87025302,-42.68013000
2.87281302,-42.68013000
2.87537302,-42.68013000
2.87793302,-42.68013000
2.88049302,-38.20917000
2.88305302,-38.20917000
2.88561302,-42.68013000
2.88817302,-38.20917000
2.89073302,-38.20917000
2.89329302,-33.73821000
2.89585302,-33.73821000
2.89841302,-33.73821000
2.90097302,-38.20917000
2.90353302,-33.73821000
2.90609302,-33.73821000
2.90865302,-33.73821000
2.91121302,-33.73821000
2.91377302,-33.73821000
2.91633302,-33.73821000
2.91889302,-33.73821000
2.92145302,-33.73821000
2.92401302,-33.73821000
2.92657302,-29.26725000
2.92913302,-29.26725000
2.93169302,-29.26725000
2.93425302,-29.26725000
2.93681302,-29.26725000
2.93937302,-29.26725000
2.94193302,-29.26725000
2.94449302,-29.26725000
2.94705302,-29.26725000
2.94961302,-29.26725000
2.95217302,-29.26725000
2.95473302,-29.26725000
2.95729302,-29.26725000
2.95985302,-29.26725000
2.96241302,-24.79629000
2.96497302,-24.79629000
2.96753302,-24.79629000
2.97009302,-29.26725000
2.97265302,-24.79629000
2.97521302,-24.79629000
2.97777302,-24.79629000
2.98033302,-24.79629000
2.98289302,-24.79629000
2.98545302,-24.79629000
2.98801302,-24.79629000
2.99057302,-24.79629000
2.99313302,-24.79629000
2.99569302,-24.79629000
2.99825302,-24.79629000
3.00081302,-24.79629000
3.00337302,-24.79629000
3.00593302,-24.79629000
3.00849302,-24.79629000
3.01105302,-24.79629000
3.01361302,-24.79629000
3.01617302,-24.79629000
3.01873302,-24.79629000
3.02129302,-24.79629000
3.02385302,-24.79629000
3.02641302,-24.79629000
3.02897302,-24.79629000
3.03153302,-24.79629000
3.03409302,-24.79629000
3.03665302,-24.79629000
3.03921302,-24.79629000
3.04177302,-24.79629000
3.04433302,-24.79629000
3.04689302,-24.79629000
3.04945302,-24.79629000
3.05201302,-24.79629000
3.05457302,-24.79629000
3.05713302,-24.79629000
3.05969302,-24.79629000
3.06225302,-24.79629000
3.06481302,-24.79629000
3.06737302,-24.79629000
3.06993302,-24.79629000
3.07249302,-24.79629000
3.07505302,-24.79629000
3.07761302,-24.79629000
3.08017302,-24.79629000
3.08273302,-24.79629000
3.08529302,-24.79629000
3.08785302,-24.79629000
3.09041302,-24.79629000
3.09297302,-24.79629000
3.09553302,-24.79629000
3.09809302,-24.79629000
3.10065302,-24.79629000
3.10321302,-24.79629000
3.10577302,-24.79629000
3.10833302,-24.79629000
3.11089302,-24.79629000
3.11345302,-24.79629000
3.11601302,-24.79629000
3.11857302,-24.79629000
3.12113302,-29.26725000
3.12369302,-24.79629000
3.12625302,-29.26725000
3.12881302,-29.26725000
3.13137302,-29.26725000
3.13393302,-24.79629000
3.13649302,-29.26725000
3.13905302,-29.26725000
3.14161302,-29.26725000
3.14417302,-29.26725000
3.14673302,-29.26725000
3.14929302,-29.26725000
3.15185302,-29.26725000
3.15441302,-29.26725000
3.15697302,-29.26725000
3.15953302,-29.26725000
3.16209302,-33.73821000
3.16465302,-29.26725000
3.16721302,-29.26725000
3.16977302,-33.73821000
3.17233302,-33.73821000
3.17489302,-33.73821000
3.17745302,-33.73821000
3.18001302,-33.73821000
3.18257302,-33.73821000
3.18513302,-33.73821000
3.18769302,-33.73821000
3.19025302,-33.73821000
3.19281302,-33.73821000
3.19537302,-33.73821000
3.19793302,-33.73821000
3.20049302,-33.73821000
3.20305302,-33.73821000
3.20561302,-33.73821000
3.20817302,-33.73821000
3.21073302,-33.73821000
3.21329302,-33.73821000
3.21585302,-33.73821000
3.21841302,-33.73821000
3.22097302,-33.73821000
3.22353302,-33.73821000
3.22609302,-33.73821000
3.22865302,-38.20917000
3.23121302,-38.20917000
3.23377302,-33.73821000
3.23633302,-38.20917000
3.23889302,-38.20917000
3.24145302,-38.20917000
3.24401302,-42.68013000
3.24657302,-38.20917000
3.24913302,-38.20917000
3.25169302,-42.68013000
3.25425302,-42.68013000
3.25681302,-42.68013000
3.25937302,-38.20917000
3.26193302,-42.68013000
3.26449302,-42.68013000
3.26705302,-42.68013000
3.26961302,-42.68013000
3.27217302,-42.68013000
3.27473302,-42.68013000
3.27729302,-42.68013000
3.27985302,-42.68013000
3.28241302,-42.68013000
3.28497302,-42.68013000
3.28753302,-42.68013000
3.29009302,-42.68013000
3.29265302,-42.68013000
3.29521302,-42.68013000
3.29777302,-47.15109000
3.30033302,-47.15109000
3.30289302,-47.15109000
3.30545302,-47.15109000
3.30801302,-47.15109000
3.31057302,-47.15109000
3.31313302,-47.15109000
3.31569302,-47.15109000
3.31825302,-51.62206000
3.32081302,-47.15109000
3.32337302,-51.62206000
3.32593302,-51.62206000
3.32849302,-51.62206000
3.33105302,-51.62206000
3.33361302,-51.62206000
3.33617302,-51.62206000
3.33873302,-51.62206000
3.34129302,-51.62206000
3.34385302,-51.62206000
3.34641302,-51.62206000
3.34897302,-51.62206000
3.35153302,-51.62206000
3.35409302,-51.62206000
3.35665302,-51.62206000
3.35921302,-51.62206000
3.36177302,-51.62206000
3.36433302,-51.62206000
3.36689302,-51.62206000
3.36945302,-51.62206000
3.37201302,-51.62206000
3.37457302,-51.62206000
3.37713302,-51.62206000
3.37969302,-56.09302000
3.38225302,-56.09302000
3.38481302,-56.09302000
3.38737302,-56.09302000
3.38993302,-56.09302000
3.39249302,-56.09302000
3.39505302,-56.09302000
3.39761302,-56.09302000
3.40017302,-60.56398000
3.40273302,-60.56398000
3.40529302,-60.56398000
3.40785302,-60.56398000
3.41041302,-60.56398000
3.41297302,-60.56398000
3.41553302,-60.56398000
3.41809302,-60.56398000
3.42065302,-60.56398000
3.42321302,-60.56398000
3.42577302,-60.56398000
3.42833302,-60.56398000
3.43089302,-60.56398000
3.43345302,-60.56398000
3.43601302,-60.56398000
3.43857302,-60.56398000
3.44113302,-60.56398000
3.44369302,-60.56398000
3.44625302,-60.56398000
3.44881302,-60.56398000
3.45137302,-60.56398000
3.45393302,-65.03493000
3.45649302,-65.03493000
3.45905302,-60.56398000
3.46161302,-65.03493000
3.46417302,-65.03493000
3.46673302,-65.03493000
3.46929302,-65.03493000
3.47185302,-65.03493000
3.47441302,-65.03493000
3.47697302,-65.03493000
3.47953302,-69.50591000
3.48209302,-65.03493000
3.48465302,-65.03493000
3.48721302,-65.03493000
3.48977302,-69.50591000
3.49233302,-69.50591000
3.49489302,-65.03493000
3.49745302,-69.50591000
3.50001302,-69.50591000
3.50257302,-69.50591000
3.50513302,-69.50591000
3.50769302,-69.50591000
3.51025302,-65.03493000
3.51281302,-69.50591000
3.51537302,-69.50591000
3.51793302,-69.50591000
3.52049302,-69.50591000
3.52305302,-69.50591000
3.52561302,-69.50591000
3.52817302,-69.50591000
3.53073302,-69.50591000
3.53329302,-69.50591000
3.53585302,-69.50591000
3.53841302,-69.50591000
3.54097302,-69.50591000
3.54353302,-69.50591000
3.54609302,-69.50591000
3.54865302,-69.50591000
3.55121302,-69.50591000
3.55377302,-69.50591000
3.55633302,-69.50591000
3.55889302,-73.99212000
3.56145302,-69.50591000
3.56401302,-69.50591000
3.56657302,-69.50591000
3.56913302,-69.50591000
3.57169302,-69.50591000
3.57425302,-69.50591000
3.57681302,-69.50591000
3.57937302,-73.99212000
3.58193302,-69.50591000
3.58449302,-73.99212000
3.58705302,-73.99212000
3.58961302,-73.99212000
3.59217302,-69.50591000
3.59473302,-73.99212000
3.59729302,-69.50591000
3.59985302,-73.99212000
3.60241302,-73.99212000
3.60497302,-73.99212000
3.60753302,-69.50591000
3.61009302,-73.99212000
3.61265302,-73.99212000
3.61521302,-78.46308000
3.61777302,-78.46308000
3.62033302,-73.99212000
3.62289302,-73.99212000
3.62545302,-73.99212000
3.62801302,-73.99212000
3.63057302,-73.99212000
3.63313302,-73.99212000
3.63569302,-73.99212000
3.63825302,-73.99212000
3.64081302,-78.46308000
3.64337302,-78.46308000
3.64593302,-73.99212000
3.64849302,-73.99212000
3.65105302,-73.99212000
3.65361302,-73.99212000
3.65617302,-78.46308000
3.65873302,-73.99212000
3.66129302,-73.99212000
3.66385302,-73.99212000
3.66641302,-73.99212000
3.66897302,-78.46308000
3.67153302,-73.99212000
3.67409302,-73.99212000
3.67665302,-73.99212000
3.67921302,-78.46308000
3.68177302,-78.46308000
3.68433302,-78.46308000
3.68689302,-73.99212000
3.68945302,-78.46308000
3.69201302,-78.46308000
3.69457302,-73.99212000
3.69713302,-73.99212000
3.69969302,-78.46308000
3.70225302,-78.46308000
3.70481302,-78.46308000
3.70737302,-78.46308000
3.70993302,-78.46308000
3.71249302,-73.99212000
3.71505302,-78.46308000
3.71761302,-78.46308000
3.72017302,-78.46308000
3.72273302,-78.46308000
3.72529302,-78.46308000
3.72785302,-78.46308000
3.73041302,-78.46308000
3.73297302,-78.46308000
3.73553302,-73.99212000
3.73809302,-78.46308000
3.74065302,-78.46308000
3.74321302,-73.99212000
3.74577301,-73.99212000
3.74833301,-78.46308000
3.75089301,-78.46308000
3.75345301,-78.46308000
3.75601301,-78.46308000
3.75857301,-73.99212000
3.76113301,-78.46308000
3.76369301,-78.46308000
3.76625301,-78.46308000
3.76881301,-73.99212000
3.77137301,-78.46308000
3.77393301,-78.46308000
3.77649301,-73.99212000
3.77905301,-78.46308000
3.78161301,-78.46308000
3.78417301,-78.46308000
3.78673301,-78.46308000
3.78929301,-78.46308000
3.79185301,-73.99212000
3.79441301,-78.46308000
3.79697301,-73.99212000
3.79953301,-78.46308000
3.80209301,-73.99212000
3.80465301,-78.46308000
3.80721301,-73.99212000
3.80977301,-73.99212000
3.81233301,-73.99212000
3.81489301,-73.99212000
3.81745301,-73.99212000
3.82001301,-73.99212000
3.82257301,-73.99212000
3.82513301,-73.99212000
3.82769301,-78.46308000
3.83025301,-73.99212000
3.83281301,-73.99212000
3.83537301,-78.46308000
3.83793301,-78.46308000
3.84049301,-78.46308000
3.84305301,-73.99212000
3.84561301,-73.99212000
3.84817301,-73.99212000
3.85073301,-78.46308000
3.85329301,-78.46308000
3.85585301,-78.46308000
3.85841301,-73.99212000
3.86097301,-73.99212000
3.86353301,-73.99212000
3.86609301,-73.99212000
3.86865301,-78.46308000
3.87121301,-73.99212000
3.87377301,-78.46308000
3.87633301,-78.46308000
3.87889301,-73.99212000
3.88145301,-78.46308000
3.88401301,-78.46308000
3.88657301,-73.99212000
3.88913301,-78.46308000
3.89169301,-73.99212000
3.89425301,-73.99212000
3.89681301,-73.99212000
3.89937301,-73.99212000
3.90193301,-78.46308000
3.90449301,-73.99212000
3.90705301,-78.46308000
3.90961301,-73.99212000
3.91217301,-73.99212000
3.91473301,-73.99212000
3.91729301,-73.99212000
3.91985301,-78.46308000
3.92241301,-78.46308000
3.92497301,-78.46308000
3.92753301,-78.46308000
3.93009301,-73.99212000
3.93265301,-73.99212000
3.93521301,-73.99212000
3.93777301,-73.99212000
3.94033301,-73.99212000
3.94289301,-78.46308000
3.94545301,-78.46308000
3.94801301,-73.99212000
3.95057301,-73.99212000
3.95313301,-73.99212000
3.95569301,-73.99212000
3.95825301,-73.99212000
3.96081301,-69.50591000
3.96337301,-73.99212000
3.96593301,-73.99212000
3.96849301,-73.99212000
3.97105301,-78.46308000
3.97361301,-73.99212000
3.97617301,-78.46308000
3.97873301,-78.46308000
3.98129301,-78.46308000
3.98385301,-73.99212000
3.98641301,-73.99212000
3.98897301,-73.99212000
3.99153301,-73.99212000
3.99409301,-73.99212000
3.99665301,-73.99212000
3.99921301,-73.99212000
4.00177301,-78.46308000
4.00433301,-73.99212000
4.00689301,-73.99212000
4.00945301,-73.99212000
4.01201301,-73.99212000
4.01457301,-73.99212000
4.01713301,-78.46308000
4.01969301,-73.99212000
4.02225301,-69.50591000
4.02481301,-73.99212000
4.02737301,-73.99212000
4.02993301,-73.99212000
4.03249301,-73.99212000
4.03505301,-73.99212000
4.03761301,-69.50591000
4.04017301,-73.99212000
4.04273301,-73.99212000
4.04529301,-73.99212000
4.04785301,-73.99212000
4.05041301,-73.99212000
4.05297301,-69.50591000
4.05553301,-73.99212000
4.05809301,-73.99212000
4.06065301,-73.99212000
4.06321301,-69.50591000
4.06577301,-73.99212000
4.06833301,-73.99212000
4.07089301,-73.99212000
4.07345301,-73.99212000
4.07601301,-73.99212000
4.07857301,-78.46308000
4.08113301,-73.99212000
4.08369301,-69.50591000
4.08625301,-69.50591000
4.08881301,-78.46308000
4.09137301,-73.99212000
4.09393301,-73.99212000
4.09649301,-73.99212000
4.09905301,-69.50591000
4.10161301,-73.99212000
4.10417301,-69.50591000
4.10673301,-73.99212000
4.10929301,-73.99212000
4.11185301,-73.99212000
4.11441301,-73.99212000
4.11697301,-73.99212000
4.11953301,-69.50591000
4.12209301,-73.99212000
4.12465301,-73.99212000
4.12721301,-69.50591000
4.12977301,-69.50591000
4.13233301,-73.99212000
4.13489301,-73.99212000
4.13745301,-73.99212000
4.14001301,-73.99212000
4.14257301,-73.99212000
4.14513301,-69.50591000
4.14769301,-73.99212000
4.15025301,-73.99212000
4.15281301,-73.99212000
4.15537301,-73.99212000
4.15793301,-73.99212000
4.16049301,-73.99212000
4.16305301,-73.99212000
4.16561301,-73.99212000
4.16817301,-73.99212000
4.17073301,-69.50591000
4.17329301,-73.99212000
4.17585301,-69.50591000
4.17841301,-69.50591000
4.18097301,-73.99212000
4.18353301,-69.50591000
4.18609301,-69.50591000
4.18865301,-69.50591000
4.19121301,-73.99212000
4.19377301,-73.99212000
4.19633301,-69.50591000
4.19889301,-73.99212000
4.20145301,-69.50591000
4.20401301,-73.99212000
4.20657301,-69.50591000
4.20913301,-73.99212000
4.21169301,-73.99212000
4.21425301,-69.50591000
4.21681301,-73.99212000
4.21937301,-69.50591000
4.22193301,-73.99212000
4.22449301,-69.50591000
4.22705301,-69.50591000
4.22961301,-73.99212000
4.23217301,-73.99212000
4.23473301,-73.99212000
4.23729301,-69.50591000
4.23985301,-69.50591000
4.24241301,-73.99212000
4.24497301,-73.99212000
4.24753301,-73.99212000
4.25009301,-69.50591000
4.25265301,-69.50591000
4.25521301,-73.99212000
4.25777301,-69.50591000
4.26033301,-73.99212000
4.26289301,-73.99212000
4.26545301,-73.99212000
4.26801301,-69.50591000
4.27057301,-69.50591000
4.27313301,-73.99212000
4.27569301,-73.99212000
4.27825301,-69.50591000
4.28081301,-73.99212000
4.28337301,-73.99212000
4.28593301,-73.99212000
4.28849301,-69.50591000
4.29105301,-73.99212000
4.29361301,-69.50591000
4.29617301,-73.99212000
4.29873301,-73.99212000
4.30129301,-73.99212000
4.30385301,-69.50591000
4.30641301,-69.50591000
4.30897301,-73.99212000
4.31153301,-69.50591000
4.31409301,-73.99212000
4.31665301,-69.50591000
4.31921301,-73.99212000
4.32177301,-73.99212000
4.32433301,-73.99212000
4.32689301,-73.99212000
4.32945301,-73.99212000
4.33201301,-73.99212000
4.33457301,-69.50591000
4.33713301,-73.99212000
4.33969301,-69.50591000
4.34225301,-73.99212000
4.34481301,-69.50591000
4.34737301,-69.50591000
4.34993301,-73.99212000
4.35249301,-73.99212000
4.35505301,-73.99212000
4.35761301,-73.99212000
4.36017301,-69.50591000
4.36273301,-69.50591000
4.36529301,-69.50591000
4.36785301,-73.99212000
4.37041301,-73.99212000
4.37297301,-69.50591000
4.37553301,-69.50591000
4.37809301,-73.99212000
4.38065301,-73.99212000
4.38321301,-73.99212000
4.38577301,-73.99212000
4.38833301,-69.50591000
4.39089301,-69.50591000
4.39345301,-73.99212000
4.39601301,-73.99212000
4.39857301,-69.50591000
4.40113301,-73.99212000
4.40369301,-69.50591000
4.40625301,-73.99212000
4.40881301,-73.99212000
4.41137301,-73.99212000
4.41393301,-69.50591000
4.41649301,-69.50591000
4.41905301,-73.99212000
4.42161301,-69.50591000
4.42417301,-69.50591000
4.42673301,-69.50591000
4.42929301,-69.50591000
4.43185301,-69.50591000
4.43441301,-69.50591000
4.43697301,-69.50591000
4.43953301,-69.50591000
4.44209301,-69.50591000
4.44465301,-69.50591000
4.44721301,-69.50591000
4.44977301,-69.50591000
4.45233301,-69.50591000
4.45489301,-69.50591000
4.45745301,-73.99212000
4.46001301,-73.99212000
4.46257301,-69.50591000
4.46513301,-69.50591000
4.46769301,-69.50591000
4.47025301,-73.99212000
4.47281301,-69.50591000
4.47537301,-69.50591000
4.47793301,-69.50591000
4.48049301,-69.50591000
4.48305301,-69.50591000
4.48561301,-73.99212000
4.48817301,-69.50591000
4.49073301,-69.50591000
4.49329301,-73.99212000
4.49585301,-69.50591000
4.49841301,-73.99212000
4.50097301,-69.50591000
4.50353301,-69.50591000
4.50609301,-73.99212000
4.50865301,-73.99212000
4.51121301,-69.50591000
4.51377301,-69.50591000
4.51633301,-69.50591000
4.51889301,-69.50591000
4.52145301,-69.50591000
4.52401301,-69.50591000
4.52657301,-69.50591000
4.52913301,-69.50591000
4.53169301,-69.50591000
4.53425301,-69.50591000
4.53681301,-69.50591000
4.53937301,-69.50591000
4.54193301,-69.50591000
4.54449301,-69.50591000
4.54705301,-69.50591000
4.54961301,-69.50591000
4.55217301,-69.50591000
4.55473301,-69.50591000
4.55729301,-69.50591000
4.55985301,-73.99212000
4.56241301,-69.50591000
4.56497301,-69.50591000
4.56753301,-69.50591000
4.57009301,-69.50591000
4.57265301,-69.50591000
4.57521301,-73.99212000
4.57777301,-73.99212000
4.58033301,-69.50591000
4.58289301,-69.50591000
4.58545301,-73.99212000
4.58801301,-73.99212000
4.59057301,-69.50591000
4.59313301,-69.50591000
4.59569301,-69.50591000
4.59825301,-69.50591000
4.60081301,-69.50591000
4.60337301,-69.50591000
4.60593301,-69.50591000
4.60849301,-69.50591000
4.61105301,-69.50591000
4.61361301,-69.50591000
4.61617301,-69.50591000
4.61873301,-69.50591000
4.62129301,-69.50591000
4.62385301,-69.50591000
4.62641301,-69.50591000
4.62897301,-73.99212000
4.63153301,-69.50591000
4.63409301,-69.50591000
4.63665301,-69.50591000
4.63921301,-69.50591000
4.64177301,-69.50591000
4.64433301,-69.50591000
4.64689301,-73.99212000
4.64945301,-73.99212000
4.65201301,-73.99212000
4.65457301,-69.50591000
4.65713301,-69.50591000
4.65969301,-73.99212000
4.66225301,-69.50591000
4.66481301,-69.50591000
4.66737301,-69.50591000
4.66993301,-69.50591000
4.67249301,-69.50591000
4.67505301,-69.50591000
4.67761301,-69.50591000
4.68017301,-69.50591000
4.68273301,-73.99212000
4.68529301,-73.99212000
4.68785301,-69.50591000
4.69041301,-73.99212000
4.69297301,-69.50591000
4.69553301,-73.99212000
4.69809301,-69.50591000
4.70065301,-69.50591000
4.70321301,-69.50591000
4.70577301,-69.50591000
4.70833301,-69.50591000
4.71089301,-69.50591000
4.71345301,-69.50591000
4.71601301,-73.99212000
4.71857301,-69.50591000
4.72113301,-69.50591000
4.72369301,-69.50591000
4.72625301,-69.50591000
4.72881301,-69.50591000
4.73137301,-69.50591000
4.73393301,-69.50591000
4.73649301,-69.50591000
4.73905301,-69.50591000
4.74161301,-69.50591000
4.74417301,-69.50591000
4.74673301,-69.50591000
4.74929301,-69.50591000
4.75185301,-73.99212000
4.75441301,-69.50591000
4.75697301,-73.99212000
4.75953301,-69.50591000
4.76209301,-69.50591000
4.76465301,-73.99212000
4.76721301,-73.99212000
4.76977301,-69.50591000
4.77233301,-69.50591000
4.77489301,-69.50591000
4.77745301,-73.99212000
4.78001301,-69.50591000
4.78257301,-73.99212000
4.78513301,-73.99212000
4.78769301,-69.50591000
4.79025301,-69.50591000
4.79281301,-69.50591000
4.79537301,-69.50591000
4.79793301,-69.50591000
4.80049301,-69.50591000
4.80305301,-69.50591000
4.80561301,-69.50591000
4.80817301,-69.50591000
4.81073301,-73.99212000
4.81329301,-69.50591000
4.81585301,-69.50591000
4.81841301,-73.99212000
4.82097301,-73.99212000
4.82353301,-69.50591000
4.82609301,-73.99212000
4.82865301,-69.50591000
4.83121301,-73.99212000
4.83377301,-69.50591000
4.83633301,-73.99212000
4.83889301,-69.50591000
4.84145301,-73.99212000
4.84401301,-69.50591000
4.84657301,-69.50591000
4.84913301,-69.50591000
4.85169301,-69.50591000
4.85425301,-69.50591000
4.85681301,-69.50591000
4.85937301,-69.50591000
4.86193301,-69.50591000
4.86449301,-69.50591000
4.86705301,-69.50591000
4.86961301,-69.50591000
4.87217301,-69.50591000
4.87473301,-69.50591000
4.87729301,-69.50591000
4.87985301,-73.99212000
4.88241301,-69.50591000
4.88497301,-69.50591000
4.88753301,-73.99212000
4.89009301,-69.50591000
4.89265301,-69.50591000
4.89521301,-69.50591000
4.89777301,-69.50591000
4.90033301,-69.50591000
4.90289301,-69.50591000
4.90545301,-69.50591000
4.90801301,-69.50591000
4.91057301,-69.50591000
4.91313301,-69.50591000
4.91569301,-69.50591000
4.91825301,-69.50591000
4.92081301,-69.50591000
4.92337301,-69.50591000
4.92593301,-69.50591000
4.92849301,-69.50591000
4.93105301,-69.50591000
4.93361301,-69.50591000
4.93617301,-69.50591000
4.93873301,-69.50591000
4.94129301,-69.50591000
4.94385301,-69.50591000
4.94641301,-69.50591000
4.94897301,-69.50591000
4.95153301,-69.50591000
4.95409301,-69.50591000
4.95665301,-69.50591000
4.95921301,-69.50591000
4.96177301,-69.50591000
4.96433301,-69.50591000
4.96689301,-69.50591000
4.96945301,-69.50591000
4.97201301,-69.50591000
4.97457301,-73.99212000
4.97713301,-69.50591000
4.97969301,-69.50591000
4.98225301,-69.50591000
4.98481301,-73.99212000
4.98737301,-69.50591000
4.98993301,-69.50591000
4.99249301,-69.50591000
4.99505301,-73.99212000
4.99761301,-73.99212000
5.00017301,-69.50591000
5.00273301,-73.99212000
5.00529301,-73.99212000
5.00785301,-73.99212000
5.01041301,-73.99212000
5.01297301,-69.50591000
5.01553301,-69.50591000
5.01809301,-73.99212000
5.02065301,-73.99212000
5.02321301,-69.50591000
5.02577301,-69.50591000
5.02833301,-73.99212000
5.03089301,-69.50591000
5.03345301,-73.99212000
5.03601301,-73.99212000
5.03857301,-73.99212000
5.04113301,-73.99212000
5.04369301,-69.50591000
5.04625301,-73.99212000
5.04881301,-73.99212000
5.05137301,-73.99212000
5.05393301,-73.99212000
5.05649301,-73.99212000
5.05905301,-69.50591000
5.06161301,-73.99212000
5.06417301,-73.99212000
5.06673301,-73.99212000
5.06929301,-69.50591000
5.07185301,-73.99212000
5.07441301,-69.50591000
5.07697301,-73.99212000
5.07953301,-73.99212000
5.08209301,-69.50591000
5.08465301,-69.50591000
5.08721301,-69.50591000
5.08977301,-73.99212000
5.09233301,-69.50591000
5.09489301,-69.50591000
5.09745301,-69.50591000
5.10001301,-69.50591000
5.10257301,-73.99212000
5.10513301,-69.50591000
5.10769301,-69.50591000
5.11025301,-69.50591000
5.11281301,-69.50591000
5.11537301,-69.50591000
5.11793301,-69.50591000
5.12049301,-73.99212000
5.12305301,-69.50591000
5.12561301,-69.50591000
5.12817301,-69.50591000
5.13073301,-69.50591000
5.13329301,-69.50591000
5.13585301,-69.50591000
5.13841301,-73.99212000
5.14097301,-69.50591000
5.14353301,-69.50591000
5.14609301,-69.50591000
5.14865301,-69.50591000
5.15121301,-69.50591000
5.15377301,-69.50591000
5.15633301,-69.50591000
5.15889301,-73.99212000
5.16145301,-69.50591000
5.16401301,-69.50591000
5.16657301,-69.50591000
5.16913301,-69.50591000
5.17169301,-69.50591000
5.17425301,-73.99212000
5.17681301,-69.50591000
5.17937301,-73.99212000
5.18193301,-69.50591000
5.18449301,-69.50591000
5.18705301,-73.99212000
5.18961301,-73.99212000
5.19217301,-73.99212000
5.19473301,-69.50591000
5.19729301,-73.99212000
5.19985301,-73.99212000
5.20241301,-73.99212000
5.20497301,-73.99212000
5.20753301,-69.50591000
5.21009301,-73.99212000
5.21265301,-73.99212000
5.21521301,-73.99212000
5.21777301,-73.99212000
5.22033301,-73.99212000
5.22289301,-73.99212000
5.22545301,-73.99212000
5.22801301,-73.99212000
5.23057301,-73.99212000
5.23313301,-73.99212000
5.23569301,-73.99212000
5.23825301,-73.99212000
5.24081301,-73.99212000
5.24337301,-73.99212000
5.24593301,-73.99212000
5.24849301,-73.99212000
5.25105301,-69.50591000
5.25361301,-69.50591000
5.25617301,-69.50591000
5.25873301,-73.99212000
5.26129301,-69.50591000
5.26385301,-73.99212000
5.26641301,-73.99212000
5.26897301,-69.50591000
5.27153301,-73.99212000
5.27409301,-69.50591000
5.27665301,-69.50591000
5.27921301,-69.50591000
5.28177301,-69.50591000
5.28433301,-69.50591000
5.28689301,-69.50591000
5.28945301,-69.50591000
5.29201301,-73.99212000
5.29457301,-69.50591000
5.29713301,-69.50591000
5.29969301,-69.50591000
5.30225301,-69.50591000
5.30481301,-69.50591000
5.30737301,-73.99212000
5.30993301,-69.50591000
5.31249301,-73.99212000
5.31505301,-69.50591000
5.31761301,-69.50591000
5.32017301,-69.50591000
5.32273301,-69.50591000
5.32529301,-69.50591000
5.32785301,-69.50591000
5.33041301,-69.50591000
5.33297301,-69.50591000
5.33553301,-69.50591000
5.33809301,-69.50591000
5.34065301,-73.99212000
5.34321301,-69.50591000
5.34577301,-69.50591000
5.34833301,-69.50591000
5.35089301,-69.50591000
5.35345301,-69.50591000
5.35601301,-69.50591000
5.35857301,-69.50591000
5.36113301,-69.50591000
5.36369301,-69.50591000
5.36625301,-69.50591000
5.36881301,-69.50591000
5.37137301,-69.50591000
5.37393301,-69.50591000
5.37649301,-69.50591000
5.37905301,-69.50591000
5.38161301,-69.50591000
5.38417301,-69.50591000
5.38673301,-69.50591000
5.38929301,-69.50591000
5.39185300,-69.50591000
5.39441300,-69.50591000
5.39697300,-73.99212000
5.39953300,-69.50591000
5.40209300,-69.50591000
5.40465300,-69.50591000
5.40721300,-69.50591000
5.40977300,-69.50591000
5.41233300,-69.50591000
5.41489300,-69.50591000
5.41745300,-69.50591000
5.42001300,-69.50591000
5.42257300,-69.50591000
5.42513300,-69.50591000
5.42769300,-69.50591000
5.43025300,-69.50591000
5.43281300,-69.50591000
5.43537300,-69.50591000
5.43793300,-69.50591000
5.44049300,-69.50591000
5.44305300,-69.50591000
5.44561300,-69.50591000
5.44817300,-69.50591000
5.45073300,-69.50591000
5.45329300,-69.50591000
5.45585300,-69.50591000
5.45841300,-69.50591000
5.46097300,-69.50591000
5.46353300,-69.50591000
5.46609300,-69.50591000
5.46865300,-69.50591000
5.47121300,-69.50591000
5.47377300,-69.50591000
5.47633300,-69.50591000
5.47889300,-69.50591000
5.48145300,-69.50591000
5.48401300,-69.50591000
5.48657300,-69.50591000
5.48913300,-69.50591000
5.49169300,-69.50591000
5.49425300,-69.50591000
5.49681300,-69.50591000
5.49937300,-69.50591000
5.50193300,-73.99212000
5.50449300,-69.50591000
5.50705300,-69.50591000
5.50961300,-69.50591000
5.51217300,-69.50591000
5.51473300,-69.50591000
5.51729300,-69.50591000
5.51985300,-69.50591000
5.52241300,-73.99212000
5.52497300,-69.50591000
5.52753300,-69.50591000
5.53009300,-73.99212000
5.53265300,-69.50591000
5.53521300,-69.50591000
5.53777300,-69.50591000
5.54033300,-69.50591000
5.54289300,-69.50591000
5.54545300,-73.99212000
5.54801300,-69.50591000
5.55057300,-69.50591000
5.55313300,-69.50591000
5.55569300,-69.50591000
5.55825300,-73.99212000
5.56081300,-69.50591000
5.56337300,-73.99212000
5.56593300,-69.50591000
5.56849300,-69.50591000
5.57105300,-69.50591000
5.57361300,-73.99212000
5.57617300,-73.99212000
5.57873300,-73.99212000
5.58129300,-73.99212000
5.58385300,-69.50591000
5.58641300,-69.50591000
5.58897300,-69.50591000
5.59153300,-69.50591000
5.59409300,-73.99212000
5.59665300,-69.50591000
5.59921300,-69.50591000
5.60177300,-73.99212000
5.60433300,-69.50591000
5.60689300,-69.50591000
5.60945300,-69.50591000
5.61201300,-73.99212000
5.61457300,-73.99212000
5.61713300,-73.99212000
5.61969300,-73.99212000
5.62225300,-73.99212000
5.62481300,-69.50591000
5.62737300,-69.50591000
5.62993300,-73.99212000
5.63249300,-69.50591000
5.63505300,-73.99212000
5.63761300,-69.50591000
5.64017300,-73.99212000
5.64273300,-73.99212000
5.64529300,-73.99212000
5.64785300,-69.50591000
5.65041300,-73.99212000
5.65297300,-73.99212000
5.65553300,-69.50591000
5.65809300,-69.50591000
5.66065300,-69.50591000
5.66321300,-69.50591000
5.66577300,-69.50591000
5.66833300,-69.50591000
5.67089300,-69.50591000
5.67345300,-73.99212000
5.67601300,-73.99212000
5.67857300,-73.99212000
5.68113300,-73.99212000
5.68369300,-73.99212000
5.68625300,-69.50591000
5.68881300,-73.99212000
5.69137300,-73.99212000
5.69393300,-69.50591000
5.69649300,-73.99212000
5.69905300,-73.99212000
5.70161300,-69.50591000
5.70417300,-69.50591000
5.70673300,-69.50591000
5.70929300,-73.99212000
5.71185300,-73.99212000
5.71441300,-69.50591000
5.71697300,-69.50591000
5.71953300,-69.50591000
5.72209300,-73.99212000
5.72465300,-69.50591000
5.72721300,-69.50591000
5.72977300,-73.99212000
5.73233300,-69.50591000
5.73489300,-73.99212000
5.73745300,-73.99212000
5.74001300,-69.50591000
5.74257300,-73.99212000
5.74513300,-69.50591000
5.74769300,-69.50591000
5.75025300,-69.50591000
5.75281300,-69.50591000
5.75537300,-69.50591000
5.75793300,-69.50591000
5.76049300,-69.50591000
5.76305300,-73.99212000
5.76561300,-73.99212000
5.76817300,-69.50591000
5.77073300,-73.99212000
5.77329300,-69.50591000
5.77585300,-69.50591000
5.77841300,-73.99212000
5.78097300,-69.50591000
5.78353300,-73.99212000
5.78609300,-73.99212000
5.78865300,-69.50591000
5.79121300,-73.99212000
5.79377300,-69.50591000
5.79633300,-73.99212000
5.79889300,-73.99212000
5.80145300,-69.50591000
5.80401300,-73.99212000
5.80657300,-69.50591000
5.80913300,-69.50591000
5.81169300,-73.99212000
5.81425300,-69.50591000
5.81681300,-69.50591000
5.81937300,-73.99212000
5.82193300,-73.99212000
5.82449300,-73.99212000
5.82705300,-73.99212000
5.82961300,-73.99212000
5.83217300,-69.50591000
5.83473300,-73.99212000
5.83729300,-69.50591000
5.83985300,-73.99212000
5.84241300,-73.99212000
5.84497300,-69.50591000
5.84753300,-73.99212000
5.85009300,-73.99212000
5.85265300,-73.99212000
5.85521300,-69.50591000
5.85777300,-69.50591000
5.86033300,-69.50591000
5.86289300,-73.99212000
5.86545300,-73.99212000
5.86801300,-73.99212000
5.87057300,-69.50591000
5.87313300,-73.99212000
5.87569300,-73.99212000
5.87825300,-73.99212000
5.88081300,-73.99212000
5.88337300,-73.99212000
5.88593300,-73.99212000
5.88849300,-69.50591000
5.89105300,-73.99212000
5.89361300,-73.99212000
5.89617300,-73.99212000
5.89873300,-73.99212000
5.90129300,-73.99212000
5.90385300,-73.99212000
5.90641300,-73.99212000
5.90897300,-73.99212000
5.91153300,-73.99212000
5.91409300,-73.99212000
5.91665300,-73.99212000
5.91921300,-73.99212000
5.92177300,-78.46308000
5.92433300,-73.99212000
5.92689300,-73.99212000
5.92945300,-73.99212000
5.93201300,-73.99212000
5.93457300,-73.99212000
5.93713300,-73.99212000
5.93969300,-73.99212000
5.94225300,-78.46308000
5.94481300,-73.99212000
5.94737300,-78.46308000
5.94993300,-73.99212000
5.95249300,-73.99212000
5.95505300,-73.99212000
5.95761300,-73.99212000
5.96017300,-78.46308000
5.96273300,-73.99212000
5.96529300,-73.99212000
5.96785300,-73.99212000
5.97041300,-73.99212000
5.97297300,-73.99212000
5.97553300,-73.99212000
5.97809300,-73.99212000
5.98065300,-73.99212000
5.98321300,-73.99212000
5.98577300,-78.46308000
5.98833300,-78.46308000
5.99089300,-73.99212000
5.99345300,-73.99212000
5.99601300,-78.46308000
5.99857300,-78.46308000
6.00113300,-78.46308000
6.00369300,-78.46308000
6.00625300,-73.99212000
6.00881300,-73.99212000
6.01137300,-73.99212000
6.01393300,-78.46308000
6.01649300,-78.46308000
6.01905300,-73.99212000
6.02161300,-73.99212000
6.02417300,-73.99212000
6.02673300,-73.99212000
6.02929300,-73.99212000
6.03185300,-78.46308000
6.03441300,-73.99212000
6.03697300,-73.99212000
6.03953300,-78.46308000
6.04209300,-73.99212000
6.04465300,-73.99212000
6.04721300,-73.99212000
6.04977300,-73.99212000
6.05233300,-73.99212000
6.05489300,-73.99212000
6.05745300,-73.99212000
6.06001300,-73.99212000
6.06257300,-73.99212000
6.06513300,-73.99212000
6.06769300,-73.99212000
6.07025300,-73.99212000
6.07281300,-78.46308000
6.07537300,-73.99212000
6.07793300,-73.99212000
6.08049300,-78.46308000
6.08305300,-78.46308000
6.08561300,-73.99212000
6.08817300,-73.99212000
6.09073300,-73.99212000
6.09329300,-73.99212000
6.09585300,-73.99212000
6.09841300,-73.99212000
6.10097300,-73.99212000
6.10353300,-73.99212000
6.10609300,-73.99212000
6.10865300,-78.46308000
6.11121300,-78.46308000
6.11377300,-73.99212000
6.11633300,-73.99212000
6.11889300,-73.99212000
6.12145300,-73.99212000
6.12401300,-73.99212000
6.12657300,-73.99212000
6.12913300,-78.46308000
6.13169300,-78.46308000
6.13425300,-73.99212000
6.13681300,-73.99212000
6.13937300,-78.46308000
6.14193300,-73.99212000
6.14449300,-73.99212000
6.14705300,-73.99212000
6.14961300,-73.99212000
6.15217300,-73.99212000
6.15473300,-78.46308000
6.15729300,-78.46308000
6.15985300,-78.46308000
6.16241300,-78.46308000
6.16497300,-78.46308000
6.16753300,-78.46308000
6.17009300,-73.99212000
6.17265300,-78.46308000
6.17521300,-78.46308000
6.17777300,-73.99212000
6.18033300,-73.99212000
6.18289300,-78.46308000
6.18545300,-73.99212000
6.18801300,-78.46308000
6.19057300,-78.46308000
6.19313300,-78.46308000
6.19569300,-78.46308000
6.19825300,-73.99212000
6.20081300,-78.46308000
6.20337300,-73.99212000
6.20593300,-73.99212000
6.20849300,-78.46308000
6.21105300,-78.46308000
6.21361300,-78.46308000
6.21617300,-78.46308000
6.21873300,-78.46308000
6.22129300,-78.46308000
6.22385300,-73.99212000
6.22641300,-73.99212000
6.22897300,-78.46308000
6.23153300,-78.46308000
6.23409300,-78.46308000
6.23665300,-78.46308000
6.23921300,-73.99212000
6.24177300,-78.46308000
6.24433300,-78.46308000
6.24689300,-78.46308000
6.24945300,-78.46308000
6.25201300,-73.99212000
6.25457300,-78.46308000
6.25713300,-78.46308000
6.25969300,-73.99212000
6.26225300,-78.46308000
6.26481300,-73.99212000
6.26737300,-73.99212000
6.26993300,-73.99212000
6.27249300,-73.99212000
6.27505300,-73.99212000
6.27761300,-78.46308000
6.28017300,-78.46308000
6.28273300,-78.46308000
6.28529300,-73.99212000
6.28785300,-78.46308000
6.29041300,-73.99212000
6.29297300,-73.99212000
6.29553300,-78.46308000
6.29809300,-78.46308000
6.30065300,-78.46308000
6.30321300,-78.46308000
6.30577300,-78.46308000
6.30833300,-78.46308000
6.31089300,-78.46308000
6.31345300,-78.46308000
6.31601300,-78.46308000
6.31857300,-78.46308000
6.32113300,-78.46308000
6.32369300,-78.46308000
6.32625300,-78.46308000
6.32881300,-78.46308000
6.33137300,-78.46308000
6.33393300,-78.46308000
6.33649300,-78.46308000
6.33905300,-78.46308000
6.34161300,-78.46308000
6.34417300,-78.46308000
6.34673300,-78.46308000
6.34929300,-78.46308000
6.35185300,-78.46308000
6.35441300,-78.46308000
6.35697300,-73.99212000
6.35953300,-73.99212000
6.36209300,-78.46308000
6.36465300,-78.46308000
6.36721300,-78.46308000
6.36977300,-78.46308000
6.37233300,-73.99212000
6.37489300,-73.99212000
6.37745300,-78.46308000
6.38001300,-78.46308000
6.38257300,-78.46308000
6.38513300,-78.46308000
6.38769300,-78.46308000
6.39025300,-78.46308000
6.39281300,-78.46308000
6.39537300,-78.46308000
6.39793300,-73.99212000
6.40049300,-78.46308000
6.40305300,-78.46308000
6.40561300,-78.46308000
6.40817300,-78.46308000
6.41073300,-78.46308000
6.41329300,-78.46308000
6.41585300,-78.46308000
6.41841300,-78.46308000
6.42097300,-73.99212000
6.42353300,-73.99212000
6.42609300,-78.46308000
6.42865300,-78.46308000
6.43121300,-78.46308000
6.43377300,-78.46308000
6.43633300,-78.46308000
6.43889300,-78.46308000
6.44145300,-78.46308000
6.44401300,-78.46308000
6.44657300,-78.46308000
6.44913300,-78.46308000
6.45169300,-78.46308000
6.45425300,-78.46308000
6.45681300,-78.46308000
6.45937300,-78.46308000
6.46193300,-78.46308000
6.46449300,-73.99212000
6.46705300,-78.46308000
6.46961300,-78.46308000
6.47217300,-78.46308000
6.47473300,-78.46308000
6.47729300,-78.46308000
6.47985300,-78.46308000
6.48241300,-78.46308000
6.48497300,-78.46308000
6.48753300,-78.46308000
6.49009300,-78.46308000
6.49265300,-73.99212000
6.49521300,-78.46308000
6.49777300,-78.46308000
6.50033300,-78.46308000
6.50289300,-78.46308000
6.50545300,-78.46308000
6.50801300,-78.46308000
6.51057300,-78.46308000
6.51313300,-78.46308000
6.51569300,-73.99212000
6.51825300,-78.46308000
6.52081300,-78.46308000
6.52337300,-73.99212000
6.52593300,-73.99212000
6.52849300,-73.99212000
6.53105300,-78.46308000
6.53361300,-78.46308000
6.53617300,-73.99212000
6.53873300,-78.46308000
6.54129300,-73.99212000
6.54385300,-73.99212000
6.54641300,-73.99212000
6.54897300,-73.99212000
6.55153300,-73.99212000
6.55409300,-73.99212000
6.55665300,-73.99212000
6.55921300,-73.99212000
6.56177300,-78.46308000
6.56433300,-78.46308000
6.56689300,-78.46308000
6.56945300,-73.99212000
6.57201300,-73.99212000
6.57457300,-78.46308000
6.57713300,-73.99212000
6.57969300,-73.99212000
6.58225300,-78.46308000
6.58481300,-73.99212000
6.58737300,-78.46308000
6.58993300,-73.99212000
6.59249300,-73.99212000
6.59505300,-73.99212000
6.59761300,-73.99212000
6.60017300,-73.99212000
6.60273300,-73.99212000
6.60529300,-73.99212000
6.60785300,-73.99212000
6.61041300,-73.99212000
6.61297300,-73.99212000
6.61553300,-73.99212000
6.61809300,-73.99212000
6.62065300,-78.46308000
6.62321300,-78.46308000
6.62577300,-73.99212000
6.62833300,-73.99212000
6.63089300,-73.99212000
6.63345300,-78.46308000
6.63601300,-73.99212000
6.63857300,-73.99212000
6.64113300,-73.99212000
6.64369300,-73.99212000
6.64625300,-78.46308000
6.64881300,-73.99212000
6.65137300,-73.99212000
6.65393300,-78.46308000
6.65649300,-73.99212000
6.65905300,-73.99212000
6.66161300,-73.99212000
6.66417300,-73.99212000
6.66673300,-78.46308000
6.66929300,-78.46308000
6.67185300,-78.46308000
6.67441300,-78.46308000
6.67697300,-78.46308000
6.67953300,-73.99212000
6.68209300,-78.46308000
6.68465300,-78.46308000
6.68721300,-73.99212000
6.68977300,-78.46308000
6.69233300,-73.99212000
6.69489300,-73.99212000
6.69745300,-73.99212000
6.70001300,-73.99212000
6.70257300,-73.99212000
6.70513300,-78.46308000
6.70769300,-73.99212000
6.71025300,-73.99212000
6.71281300,-78.46308000
6.71537300,-73.99212000
6.71793300,-78.46308000
6.72049300,-78.46308000
6.72305300,-78.46308000
6.72561300,-78.46308000
6.72817300,-73.99212000
6.73073300,-78.46308000
6.73329300,-73.99212000
6.73585300,-78.46308000
6.73841300,-78.46308000
6.74097300,-78.46308000
6.74353300,-78.46308000
6.74609300,-78.46308000
6.74865300,-78.46308000
6.75121300,-78.46308000
6.75377300,-78.46308000
6.75633300,-78.46308000
6.75889300,-78.46308000
6.76145300,-78.46308000
6.76401300,-78.46308000
6.76657300,-78.46308000
6.76913300,-78.46308000
6.77169300,-78.46308000
6.77425300,-78.46308000
6.77681300,-78.46308000
6.77937300,-78.46308000
6.78193300,-78.46308000
6.78449300,-78.46308000
6.78705300,-78.46308000
6.78961300,-78.46308000
6.79217300,-78.46308000
6.79473300,-78.46308000
6.79729300,-78.46308000
6.79985300,-78.46308000
6.80241300,-78.46308000
6.80497300,-78.46308000
6.80753300,-78.46308000
6.81009300,-78.46308000
6.81265300,-78.46308000
6.81521300,-78.46308000
6.81777300,-78.46308000
6.82033300,-78.46308000
6.82289300,-78.46308000
6.82545300,-78.46308000
6.82801300,-82.93404000
6.83057300,-78.46308000
6.83313300,-82.93404000
6.83569300,-82.93404000
6.83825300,-82.93404000
6.84081300,-82.93404000
6.84337300,-82.93404000
6.84593300,-82.93404000
6.84849300,-82.93404000
6.85105300,-82.93404000
6.85361300,-87.40501000
6.85617300,-82.93404000
6.85873300,-82.93404000
6.86129300,-87.40501000
6.86385300,-87.40501000
6.86641300,-82.93404000
6.86897300,-87.40501000
6.87153300,-82.93404000
6.87409300,-87.40501000
6.87665300,-87.40501000
6.87921300,-87.40501000
6.88177300,-87.40501000
6.88433300,-87.40501000
6.88689300,-87.40501000
6.88945300,-87.40501000
6.89201300,-87.40501000
6.89457300,-87.40501000
6.89713300,-87.40501000
6.89969300,-87.40501000
6.90225300,-87.40501000
6.90481300,-91.87596000
6.90737300,-87.40501000
6.90993300,-87.40501000
6.91249300,-87.40501000
6.91505300,-96.34693000
6.91761300,-91.87596000
6.92017300,-96.34693000
6.92273300,-91.87596000
6.92529300,-96.34693000
6.92785300,-91.87596000
6.93041300,-96.34693000
6.93297300,-96.34693000
6.93553300,-96.34693000
6.93809300,-96.34693000
6.94065300,-96.34693000
6.94321300,-96.34693000
6.94577300,-96.34693000
6.94833300,-96.34693000
6.95089300,-96.34693000
6.95345300,-96.34693000
6.95601300,-100.81790000
6.95857300,-100.81790000
6.96113300,-100.81790000
6.96369300,-100.81790000
6.96625300,-100.81790000
6.96881300,-100.81790000
6.97137300,-100.81790000
6.97393300,-100.81790000
6.97649300,-100.81790000
6.97905300,-105.28880000
6.98161300,-105.28880000
6.98417300,-105.28880000
6.98673300,-105.28880000
6.98929300,-105.28880000
6.99185300,-105.28880000
6.99441300,-105.28880000
6.99697300,-105.28880000
6.99953300,-105.28880000
7.00209300,-105.28880000
7.00465300,-105.28880000
7.00721300,-105.28880000
7.00977300,-105.28880000
7.01233300,-105.28880000
7.01489300,-105.28880000
7.01745300,-109.75980000
7.02001300,-105.28880000
7.02257300,-109.75980000
7.02513300,-109.75980000
7.02769300,-109.75980000
7.03025300,-109.75980000
7.03281300,-114.23080000
7.03537300,-109.75980000
7.03793299,-114.23080000
7.04049299,-114.23080000
7.04305299,-114.23080000
7.04561299,-114.23080000
7.04817299,-114.23080000
7.05073299,-114.23080000
7.05329299,-114.23080000
7.05585299,-114.23080000
7.05841299,-114.23080000
7.06097299,-114.23080000
7.06353299,-114.23080000
7.06609299,-114.23080000
7.06865299,-114.23080000
7.07121299,-114.23080000
7.07377299,-114.23080000
7.07633299,-114.23080000
7.07889299,-114.23080000
7.08145299,-118.70170000
7.08401299,-118.70170000
7.08657299,-118.70170000
7.08913299,-118.70170000
7.09169299,-118.70170000
7.09425299,-118.70170000
7.09681299,-118.70170000
7.09937299,-118.70170000
7.10193299,-118.70170000
7.10449299,-118.70170000
7.10705299,-118.70170000
7.10961299,-118.70170000
7.11217299,-118.70170000
7.11473299,-118.70170000
7.11729299,-118.70170000
7.11985299,-118.70170000
7.12241299,-118.70170000
7.12497299,-118.70170000
7.12753299,-118.70170000
7.13009299,-118.70170000
7.13265299,-118.70170000
7.13521299,-123.17270000
7.13777299,-118.70170000
7.14033299,-118.70170000
7.14289299,-118.70170000
7.14545299,-118.70170000
7.14801299,-118.70170000
7.15057299,-118.70170000
7.15313299,-123.17270000
7.15569299,-123.17270000
7.15825299,-118.70170000
7.16081299,-118.70170000
7.16337299,-123.17270000
7.16593299,-123.17270000
7.16849299,-118.70170000
7.17105299,-123.17270000
7.17361299,-118.70170000
7.17617299,-123.17270000
7.17873299,-123.17270000
7.18129299,-123.17270000
7.18385299,-123.17270000
7.18641299,-118.70170000
7.18897299,-118.70170000
7.19153299,-123.17270000
7.19409299,-123.17270000
7.19665299,-123.17270000
7.19921299,-118.70170000
7.20177299,-118.70170000
7.20433299,-118.70170000
7.20689299,-123.17270000
7.20945299,-118.70170000
7.21201299,-118.70170000
7.21457299,-118.70170000
7.21713299,-118.70170000
7.21969299,-118.70170000
7.22225299,-118.70170000
7.22481299,-118.70170000
7.22737299,-118.70170000
7.22993299,-118.70170000
7.23249299,-118.70170000
7.23505299,-118.70170000
7.23761299,-118.70170000
7.24017299,-118.70170000
7.24273299,-118.70170000
7.24529299,-118.70170000
7.24785299,-118.70170000
7.25041299,-118.70170000
7.25297299,-118.70170000
7.25553299,-114.23080000
7.25809299,-118.70170000
7.26065299,-118.70170000
7.26321299,-118.70170000
7.26577299,-118.70170000
7.26833299,-118.70170000
7.27089299,-114.23080000
7.27345299,-114.23080000
7.27601299,-114.23080000
7.27857299,-118.70170000
7.28113299,-114.23080000
7.28369299,-114.23080000
7.28625299,-114.23080000
7.28881299,-114.23080000
7.29137299,-114.23080000
7.29393299,-114.23080000
7.29649299,-114.23080000
7.29905299,-114.23080000
7.30161299,-114.23080000
7.30417299,-114.23080000
7.30673299,-114.23080000
7.30929299,-114.23080000
7.31185299,-114.23080000
7.31441299,-114.23080000
7.31697299,-114.23080000
7.31953299,-114.23080000
7.32209299,-114.23080000
7.32465299,-109.75980000
7.32721299,-109.75980000
7.32977299,-114.23080000
7.33233299,-109.75980000
7.33489299,-109.75980000
7.33745299,-109.75980000
7.34001299,-114.23080000
7.34257299,-109.75980000
7.34513299,-114.23080000
7.34769299,-105.28880000
7.35025299,-109.75980000
7.35281299,-109.75980000
7.35537299,-109.75980000
7.35793299,-109.75980000
7.36049299,-105.28880000
7.36305299,-105.28880000
7.36561299,-105.28880000
7.36817299,-105.28880000
7.37073299,-105.28880000
7.37329299,-105.28880000
7.37585299,-105.28880000
7.37841299,-105.28880000
7.38097299,-105.28880000
7.38353299,-105.28880000
7.38609299,-105.28880000
7.38865299,-105.28880000
7.39121299,-105.28880000
7.39377299,-105.28880000
7.39633299,-105.28880000
7.39889299,-105.28880000
7.40145299,-105.28880000
7.40401299,-105.28880000
7.40657299,-105.28880000
7.40913299,-105.28880000
7.41169299,-105.28880000
7.41425299,-105.28880000
7.41681299,-100.81790000
7.41937299,-100.81790000
7.42193299,-100.81790000
7.42449299,-100.81790000
7.42705299,-100.81790000
7.42961299,-100.81790000
7.43217299,-100.81790000
7.43473299,-100.81790000
7.43729299,-96.34693000
7.43985299,-100.81790000
7.44241299,-96.34693000
7.44497299,-96.34693000
7.44753299,-96.34693000
7.45009299,-96.34693000
7.45265299,-100.81790000
7.45521299,-96.34693000
7.45777299,-96.34693000
7.46033299,-96.34693000
7.46289299,-96.34693000
7.46545299,-96.34693000
7.46801299,-96.34693000
7.47057299,-96.34693000
7.47313299,-96.34693000
7.47569299,-96.34693000
7.47825299,-96.34693000
7.48081299,-96.34693000
7.48337299,-96.34693000
7.48593299,-91.87596000
7.48849299,-96.34693000
7.49105299,-91.87596000
7.49361299,-91.87596000
7.49617299,-91.87596000
7.49873299,-91.87596000
7.50129299,-91.87596000
7.50385299,-87.40501000
7.50641299,-87.40501000
7.50897299,-87.40501000
7.51153299,-87.40501000
7.51409299,-87.40501000
7.51665299,-87.40501000
7.51921299,-87.40501000
7.52177299,-87.40501000
7.52433299,-87.40501000
7.52689299,-87.40501000
7.52945299,-87.40501000
7.53201299,-87.40501000
7.53457299,-87.40501000
7.53713299,-87.40501000
7.53969299,-87.40501000
7.54225299,-87.40501000
7.54481299,-87.40501000
7.54737299,-82.93404000
7.54993299,-87.40501000
7.55249299,-87.40501000
7.55505299,-82.93404000
7.55761299,-87.40501000
7.56017299,-82.93404000
7.56273299,-82.93404000
7.56529299,-82.93404000
7.56785299,-82.93404000
7.57041299,-82.93404000
7.57297299,-82.93404000
7.57553299,-82.93404000
7.57809299,-82.93404000
7.58065299,-82.93404000
7.58321299,-82.93404000
7.58577299,-82.93404000
7.58833299,-82.93404000
7.59089299,-78.46308000
7.59345299,-82.93404000
7.59601299,-78.46308000
7.59857299,-82.93404000
7.60113299,-78.46308000
7.60369299,-78.46308000
7.60625299,-82.93404000
7.60881299,-78.46308000
7.61137299,-78.46308000
7.61393299,-78.46308000
7.61649299,-78.46308000
7.61905299,-78.46308000
7.62161299,-78.46308000
7.62417299,-78.46308000
7.62673299,-78.46308000
7.62929299,-78.46308000
7.63185299,-78.46308000
7.63441299,-78.46308000
7.63697299,-78.46308000
7.63953299,-78.46308000
7.64209299,-78.46308000
7.64465299,-78.46308000
7.64721299,-78.46308000
7.64977299,-78.46308000
7.65233299,-78.46308000
7.65489299,-78.46308000
7.65745299,-78.46308000
7.66001299,-78.46308000
7.66257299,-78.46308000
7.66513299,-78.46308000
7.66769299,-78.46308000
7.67025299,-78.46308000
7.67281299,-78.46308000
7.67537299,-78.46308000
7.67793299,-78.46308000
7.68049299,-73.99212000
7.68305299,-78.46308000
7.68561299,-73.99212000
7.68817299,-78.46308000
7.69073299,-73.99212000
7.69329299,-73.99212000
7.69585299,-73.99212000
7.69841299,-73.99212000
7.70097299,-73.99212000
7.70353299,-73.99212000
7.70609299,-69.50591000
7.70865299,-73.99212000
7.71121299,-73.99212000
7.71377299,-69.50591000
7.71633299,-73.99212000
7.71889299,-73.99212000
7.72145299,-69.50591000
7.72401299,-73.99212000
7.72657299,-73.99212000
7.72913299,-73.99212000
7.73169299,-69.50591000
7.73425299,-69.50591000
7.73681299,-69.50591000
7.73937299,-69.50591000
7.74193299,-69.50591000
7.74449299,-69.50591000
7.74705299,-69.50591000
7.74961299,-69.50591000
7.75217299,-69.50591000
7.75473299,-69.50591000
7.75729299,-73.99212000
7.75985299,-69.50591000
7.76241299,-69.50591000
7.76497299,-69.50591000
7.76753299,-69.50591000
7.77009299,-69.50591000
7.77265299,-69.50591000
7.77521299,-69.50591000
7.77777299,-69.50591000
7.78033299,-69.50591000
7.78289299,-69.50591000
7.78545299,-69.50591000
7.78801299,-69.50591000
7.79057299,-69.50591000
7.79313299,-69.50591000
7.79569299,-69.50591000
7.79825299,-69.50591000
7.80081299,-69.50591000
7.80337299,-69.50591000
7.80593299,-69.50591000
7.80849299,-69.50591000
7.81105299,-69.50591000
7.81361299,-69.50591000
7.81617299,-69.50591000
7.81873299,-69.50591000
7.82129299,-69.50591000
7.82385299,-69.50591000
7.82641299,-65.03493000
7.82897299,-69.50591000
7.83153299,-69.50591000
7.83409299,-69.50591000
7.83665299,-65.03493000
7.83921299,-69.50591000
7.84177299,-69.50591000
7.84433299,-69.50591000
7.84689299,-69.50591000
7.84945299,-65.03493000
7.85201299,-65.03493000
7.85457299,-65.03493000
7.85713299,-60.56398000
7.85969299,-65.03493000
7.86225299,-65.03493000
7.86481299,-65.03493000
7.86737299,-60.56398000
7.86993299,-65.03493000
7.87249299,-60.56398000
7.87505299,-60.56398000
7.87761299,-60.56398000
7.88017299,-60.56398000
7.88273299,-60.56398000
7.88529299,-60.56398000
7.88785299,-60.56398000
7.89041299,-60.56398000
7.89297299,-60.56398000
7.89553299,-60.56398000
7.89809299,-60.56398000
7.90065299,-60.56398000
7.90321299,-60.56398000
7.90577299,-60.56398000
7.90833299,-56.09302000
7.91089299,-56.09302000
7.91345299,-56.09302000
7.91601299,-60.56398000
7.91857299,-56.09302000
7.92113299,-56.09302000
7.92369299,-56.09302000
7.92625299,-56.09302000
7.92881299,-51.62206000
7.93137299,-51.62206000
7.93393299,-56.09302000
7.93649299,-51.62206000
7.93905299,-51.62206000
7.94161299,-51.62206000
7.94417299,-51.62206000
7.94673299,-51.62206000
7.94929299,-51.62206000
7.95185299,-51.62206000
7.95441299,-51.62206000
7.95697299,-51.62206000
7.95953299,-47.15109000
7.96209299,-51.62206000
7.96465299,-47.15109000
7.96721299,-47.15109000
7.96977299,-47.15109000
7.97233299,-47.15109000
7.97489299,-47.15109000
7.97745299,-42.68013000
7.98001299,-42.68013000
7.98257299,-42.68013000
7.98513299,-42.68013000
7.98769299,-42.68013000
7.99025299,-42.68013000
7.99281299,-42.68013000
7.99537299,-42.68013000
7.99793299,-38.20917000
8.00049299,-38.20917000
8.00305299,-42.68013000
8.00561299,-38.20917000
8.00817299,-38.20917000
8.01073299,-38.20917000
8.01329299,-33.73821000
8.01585299,-33.73821000
8.01841299,-33.73821000
8.02097299,-33.73821000
8.02353299,-33.73821000
8.02609299,-33.73821000
8.02865299,-33.73821000
8.03121299,-33.73821000
8.03377299,-33.73821000
8.03633299,-33.73821000
8.03889299,-33.73821000
8.04145299,-29.26725000
8.04401299,-29.26725000
8.04657299,-29.26725000
8.04913299,-29.26725000
8.05169299,-29.26725000
8.05425299,-24.79629000
8.05681299,-24.79629000
8.05937299,-24.79629000
8.06193299,-24.79629000
8.06449299,-24.79629000
8.06705299,-24.79629000
8.06961299,-24.79629000
8.07217299,-24.79629000
8.07473299,-24.79629000
8.07729299,-24.79629000
8.07985299,-20.32533000
8.08241299,-20.32533000
8.08497299,-20.32533000
8.08753299,-20.32533000
8.09009299,-20.32533000
8.09265299,-15.85437000
8.09521299,-15.85437000
8.09777299,-15.85437000
8.10033299,-15.85437000
8.10289299,-15.85437000
8.10545299,-15.85437000
8.10801299,-15.85437000
8.11057299,-15.85437000
8.11313299,-15.85437000
8.11569299,-15.85437000
8.11825299,-15.85437000
8.12081299,-15.85437000
8.12337299,-15.85437000
8.12593299,-15.85437000
8.12849299,-15.85437000
8.13105299,-15.85437000
8.13361299,-15.85437000
8.13617299,-15.85437000
8.13873299,-11.38340000
8.14129299,-11.38340000
8.14385299,-15.85437000
8.14641299,-11.38340000
8.14897299,-15.85437000
8.15153299,-11.38340000
8.15409299,-11.38340000
8.15665299,-11.38340000
8.15921299,-11.38340000
8.16177299,-11.38340000
8.16433299,-11.38340000
8.16689299,-11.38340000
8.16945299,-11.38340000
8.17201299,-11.38340000
8.17457299,-11.38340000
8.17713299,-11.38340000
8.17969299,-11.38340000
8.18225299,-11.38340000
8.18481299,-11.38340000
8.18737299,-11.38340000
8.18993299,-11.38340000
8.19249299,-11.38340000
8.19505299,-11.38340000
8.19761299,-11.38340000
8.20017299,-11.38340000
8.20273299,-11.38340000
8.20529299,-11.38340000
8.20785299,-11.38340000
8.21041299,-11.38340000
8.21297299,-11.38340000
8.21553299,-11.38340000
8.21809299,-11.38340000
8.22065299,-11.38340000
8.22321299,-11.38340000
8.22577299,-11.38340000
8.22833299,-11.38340000
8.23089299,-11.38340000
8.23345299,-15.85437000
8.23601299,-15.85437000
8.23857299,-15.85437000
8.24113299,-15.85437000
8.24369299,-15.85437000
8.24625299,-15.85437000
8.24881299,-15.85437000
8.25137299,-15.85437000
8.25393299,-15.85437000
8.25649299,-15.85437000
8.25905299,-15.85437000
8.26161299,-15.85437000
8.26417299,-15.85437000
8.26673299,-15.85437000
8.26929299,-15.85437000
8.27185299,-15.85437000
8.27441299,-15.85437000
8.27697299,-15.85437000
8.27953299,-15.85437000
8.28209299,-15.85437000
8.28465299,-15.85437000
8.28721299,-15.85437000
8.28977299,-15.85437000
8.29233299,-15.85437000
8.29489299,-15.85437000
8.29745299,-15.85437000
8.30001299,-15.85437000
8.30257299,-15.85437000
8.30513299,-15.85437000
8.30769299,-15.85437000
8.31025299,-15.85437000
8.31281299,-15.85437000
8.31537299,-15.85437000
8.31793299,-15.85437000
8.32049299,-15.85437000
8.32305299,-20.32533000
8.32561299,-15.85437000
8.32817299,-15.85437000
8.33073299,-20.32533000
8.33329299,-20.32533000
8.33585299,-20.32533000
8.33841299,-20.32533000
8.34097299,-20.32533000
8.34353299,-20.32533000
8.34609299,-20.32533000
8.34865299,-20.32533000
8.35121299,-20.32533000
8.35377299,-24.79629000
8.35633299,-24.79629000
8.35889299,-24.79629000
8.36145299,-24.79629000
8.36401299,-24.79629000
8.36657299,-24.79629000
8.36913299,-24.79629000
8.37169299,-24.79629000
8.37425299,-24.79629000
8.37681299,-24.79629000
8.37937299,-24.79629000
8.38193299,-24.79629000
8.38449299,-24.79629000
8.38705299,-24.79629000
8.38961299,-24.79629000
8.39217299,-24.79629000
8.39473299,-24.79629000
8.39729299,-24.79629000
8.39985299,-24.79629000
8.40241299,-24.79629000
8.40497299,-24.79629000
8.40753299,-24.79629000
8.41009299,-24.79629000
8.41265299,-24.79629000
8.41521299,-24.79629000
8.41777299,-29.26725000
8.42033299,-29.26725000
8.42289299,-24.79629000
8.42545299,-29.26725000
8.42801299,-24.79629000
8.43057299,-24.79629000
8.43313299,-24.79629000
8.43569299,-29.26725000
8.43825299,-29.26725000
8.44081299,-29.26725000
8.44337299,-29.26725000
8.44593299,-29.26725000
8.44849299,-29.26725000
8.45105299,-29.26725000
8.45361299,-29.26725000
8.45617299,-29.26725000
8.45873299,-29.26725000
8.46129299,-29.26725000
8.46385299,-29.26725000
8.46641299,-33.73821000
8.46897299,-33.73821000
8.47153299,-33.73821000
8.47409299,-33.73821000
8.47665299,-33.73821000
8.47921299,-33.73821000
8.48177299,-33.73821000
8.48433299,-33.73821000
8.48689299,-33.73821000
8.48945299,-33.73821000
8.49201299,-33.73821000
8.49457299,-33.73821000
8.49713299,-33.73821000
8.49969299,-33.73821000
8.50225299,-33.73821000
8.50481299,-33.73821000
8.50737299,-33.73821000
8.50993299,-33.73821000
8.51249299,-33.73821000
8.51505299,-33.73821000
8.51761299,-33.73821000
8.52017299,-33.73821000
8.52273299,-38.20917000
8.52529299,-33.73821000
8.52785299,-38.20917000
8.53041299,-38.20917000
8.53297299,-38.20917000
8.53553299,-38.20917000
8.53809299,-38.20917000
8.54065299,-38.20917000
8.54321299,-42.68013000
8.54577299,-42.68013000
8.54833299,-38.20917000
8.55089299,-42.68013000
8.55345299,-42.68013000
8.55601299,-42.68013000
8.55857299,-42.68013000
8.56113299,-42.68013000
8.56369299,-42.68013000
8.56625299,-42.68013000
8.56881299,-42.68013000
8.57137299,-42.68013000
8.57393299,-42.68013000
8.57649299,-42.68013000
8.57905299,-42.68013000
8.58161299,-42.68013000
8.58417299,-42.68013000
8.58673299,-47.15109000
8.58929299,-42.68013000
8.59185299,-47.15109000
8.59441299,-47.15109000
8.59697299,-42.68013000
8.59953299,-47.15109000
8.60209299,-47.15109000
8.60465299,-47.15109000
8.60721299,-47.15109000
8.60977299,-47.15109000
8.61233299,-51.62206000
8.61489299,-51.62206000
8.61745299,-47.15109000
8.62001299,-51.62206000
8.62257299,-51.62206000
8.62513299,-51.62206000
8.62769299,-51.62206000
8.63025299,-51.62206000
8.63281299,-51.62206000
8.63537299,-51.62206000
8.63793299,-51.62206000
8.64049299,-51.62206000
8.64305299,-51.62206000
8.64561299,-51.62206000
8.64817299,-51.62206000
8.65073299,-51.62206000
8.65329299,-51.62206000
8.65585299,-51.62206000
8.65841299,-56.09302000
8.66097299,-56.09302000
8.66353299,-56.09302000
8.66609299,-56.09302000
8.66865299,-56.09302000
8.67121299,-56.09302000
8.67377299,-56.09302000
8.67633299,-60.56398000
8.67889299,-56.09302000
8.68145299,-56.09302000
8.68401298,-60.56398000
8.68657298,-60.56398000
8.68913298,-60.56398000
8.69169298,-60.56398000
8.69425298,-60.56398000
8.69681298,-60.56398000
8.69937298,-60.56398000
8.70193298,-65.03493000
8.70449298,-60.56398000
8.70705298,-60.56398000
8.70961298,-60.56398000
8.71217298,-60.56398000
8.71473298,-60.56398000
8.71729298,-60.56398000
8.71985298,-65.03493000
8.72241298,-65.03493000
8.72497298,-65.03493000
8.72753298,-65.03493000
8.73009298,-60.56398000
8.73265298,-65.03493000
8.73521298,-65.03493000
8.73777298,-65.03493000
8.74033298,-69.50591000
8.74289298,-65.03493000
8.74545298,-65.03493000
8.74801298,-69.50591000
8.75057298,-69.50591000
8.75313298,-69.50591000
8.75569298,-65.03493000
8.75825298,-69.50591000
8.76081298,-69.50591000
8.76337298,-69.50591000
8.76593298,-69.50591000
8.76849298,-69.50591000
8.77105298,-69.50591000
8.77361298,-69.50591000
8.77617298,-69.50591000
8.77873298,-69.50591000
8.78129298,-69.50591000
8.78385298,-69.50591000
8.78641298,-69.50591000
8.78897298,-69.50591000
8.79153298,-69.50591000
8.79409298,-69.50591000
8.79665298,-69.50591000
8.79921298,-69.50591000
8.80177298,-73.99212000
8.80433298,-69.50591000
8.80689298,-73.99212000
8.80945298,-73.99212000
8.81201298,-73.99212000
8.81457298,-73.99212000
8.81713298,-73.99212000
8.81969298,-73.99212000
8.82225298,-69.50591000
8.82481298,-73.99212000
8.82737298,-73.99212000
8.82993298,-73.99212000
8.83249298,-78.46308000
8.83505298,-78.46308000
8.83761298,-78.46308000
8.84017298,-78.46308000
8.84273298,-78.46308000
8.84529298,-78.46308000
8.84785298,-78.46308000
8.85041298,-78.46308000
8.85297298,-78.46308000
8.85553298,-78.46308000
8.85809298,-78.46308000
8.86065298,-78.46308000
8.86321298,-78.46308000
8.86577298,-78.46308000
8.86833298,-78.46308000
8.87089298,-78.46308000
8.87345298,-78.46308000
8.87601298,-78.46308000
8.87857298,-78.46308000
8.88113298,-78.46308000
8.88369298,-78.46308000
8.88625298,-82.93404000
8.88881298,-78.46308000
8.89137298,-78.46308000
8.89393298,-82.93404000
8.89649298,-78.46308000
8.89905298,-78.46308000
8.90161298,-78.46308000
8.90417298,-82.93404000
8.90673298,-82.93404000
8.90929298,-82.93404000
8.91185298,-78.46308000
8.91441298,-78.46308000
8.91697298,-78.46308000
8.91953298,-82.93404000
8.92209298,-82.93404000
8.92465298,-82.93404000
8.92721298,-82.93404000
8.92977298,-82.93404000
8.93233298,-82.93404000
8.93489298,-82.93404000
8.93745298,-82.93404000
8.94001298,-82.93404000
8.94257298,-82.93404000
8.94513298,-82.93404000
8.94769298,-82.93404000
8.95025298,-82.93404000
8.95281298,-82.93404000
8.95537298,-82.93404000
8.95793298,-82.93404000
8.96049298,-82.93404000
8.96305298,-87.40501000
8.96561298,-87.40501000
8.96817298,-82.93404000
8.97073298,-87.40501000
8.97329298,-82.93404000
8.97585298,-87.40501000
8.97841298,-82.93404000
8.98097298,-82.93404000
8.98353298,-87.40501000
8.98609298,-82.93404000
8.98865298,-82.93404000
8.99121298,-87.40501000
8.99377298,-82.93404000
8.99633298,-82.93404000
8.99889298,-87.40501000
9.00145298,-87.40501000
9.00401298,-87.40501000
9.00657298,-82.93404000
9.00913298,-87.40501000
9.01169298,-87.40501000
9.01425298,-87.40501000
9.01681298,-87.40501000
9.01937298,-82.93404000
9.02193298,-87.40501000
9.02449298,-87.40501000
9.02705298,-87.40501000
9.02961298,-87.40501000
9.03217298,-87.40501000
9.03473298,-87.40501000
9.03729298,-87.40501000
9.03985298,-87.40501000
9.04241298,-87.40501000
9.04497298,-87.40501000
9.04753298,-87.40501000
9.05009298,-87.40501000
9.05265298,-87.40501000
9.05521298,-87.40501000
9.05777298,-87.40501000
9.06033298,-87.40501000
9.06289298,-87.40501000
9.06545298,-87.40501000
9.06801298,-87.40501000
9.07057298,-87.40501000
9.07313298,-87.40501000
9.07569298,-87.40501000
9.07825298,-87.40501000
9.08081298,-87.40501000
9.08337298,-87.40501000
9.08593298,-87.40501000
9.08849298,-87.40501000
9.09105298,-87.40501000
9.09361298,-87.40501000
9.09617298,-87.40501000
9.09873298,-87.40501000
9.10129298,-87.40501000
9.10385298,-87.40501000
9.10641298,-87.40501000
9.10897298,-87.40501000
9.11153298,-87.40501000
9.11409298,-87.40501000
9.11665298,-87.40501000
9.11921298,-87.40501000
9.12177298,-87.40501000
9.12433298,-87.40501000
9.12689298,-87.40501000
9.12945298,-87.40501000
9.13201298,-87.40501000
9.13457298,-87.40501000
9.13713298,-87.40501000
9.13969298,-87.40501000
9.14225298,-87.40501000
9.14481298,-87.40501000
9.14737298,-87.40501000
9.14993298,-87.40501000
9.15249298,-87.40501000
9.15505298,-87.40501000
9.15761298,-87.40501000
9.16017298,-87.40501000
9.16273298,-87.40501000
9.16529298,-87.40501000
9.16785298,-87.40501000
9.17041298,-87.40501000
9.17297298,-87.40501000
9.17553298,-87.40501000
9.17809298,-87.40501000
9.18065298,-87.40501000
9.18321298,-87.40501000
9.18577298,-87.40501000
9.18833298,-87.40501000
9.19089298,-87.40501000
9.19345298,-87.40501000
9.19601298,-87.40501000
9.19857298,-87.40501000
9.20113298,-87.40501000
9.20369298,-87.40501000
9.20625298,-87.40501000
9.20881298,-87.40501000
9.21137298,-87.40501000
9.21393298,-87.40501000
9.21649298,-87.40501000
9.21905298,-87.40501000
9.22161298,-87.40501000
9.22417298,-87.40501000
9.22673298,-87.40501000
9.22929298,-87.40501000
9.23185298,-87.40501000
9.23441298,-87.40501000
9.23697298,-87.40501000
9.23953298,-87.40501000
9.24209298,-87.40501000
9.24465298,-87.40501000
9.24721298,-87.40501000
9.24977298,-87.40501000
9.25233298,-87.40501000
9.25489298,-87.40501000
9.25745298,-87.40501000
9.26001298,-87.40501000
9.26257298,-87.40501000
9.26513298,-87.40501000
9.26769298,-87.40501000
9.27025298,-87.40501000
9.27281298,-87.40501000
9.27537298,-87.40501000
9.27793298,-87.40501000
9.28049298,-87.40501000
9.28305298,-87.40501000
9.28561298,-82.93404000
9.28817298,-87.40501000
9.29073298,-87.40501000
9.29329298,-87.40501000
9.29585298,-82.93404000
9.29841298,-87.40501000
9.30097298,-87.40501000
9.30353298,-87.40501000
9.30609298,-82.93404000
9.30865298,-87.40501000
9.31121298,-87.40501000
9.31377298,-87.40501000
9.31633298,-82.93404000
9.31889298,-87.40501000
9.32145298,-87.40501000
9.32401298,-87.40501000
9.32657298,-82.93404000
9.32913298,-82.93404000
9.33169298,-82.93404000
9.33425298,-82.93404000
9.33681298,-87.40501000
9.33937298,-87.40501000
9.34193298,-87.40501000
9.34449298,-87.40501000
9.34705298,-87.40501000
9.34961298,-82.93404000
9.35217298,-82.93404000
9.35473298,-87.40501000
9.35729298,-82.93404000
9.35985298,-87.40501000
9.36241298,-82.93404000
9.36497298,-87.40501000
9.36753298,-87.40501000
9.37009298,-87.40501000
9.37265298,-87.40501000
9.37521298,-87.40501000
9.37777298,-82.93404000
9.38033298,-82.93404000
9.38289298,-82.93404000
9.38545298,-87.40501000
9.38801298,-87.40501000
9.39057298,-87.40501000
9.39313298,-87.40501000
9.39569298,-82.93404000
9.39825298,-87.40501000
9.40081298,-82.93404000
9.40337298,-82.93404000
9.40593298,-82.93404000
9.40849298,-82.93404000
9.41105298,-82.93404000
9.41361298,-87.40501000
9.41617298,-82.93404000
9.41873298,-82.93404000
9.42129298,-82.93404000
9.42385298,-82.93404000
9.42641298,-87.40501000
9.42897298,-82.93404000
9.43153298,-82.93404000
9.43409298,-82.93404000
9.43665298,-82.93404000
9.43921298,-82.93404000
9.44177298,-82.93404000
9.44433298,-82.93404000
9.44689298,-82.93404000
9.44945298,-87.40501000
9.45201298,-82.93404000
9.45457298,-82.93404000
9.45713298,-82.93404000
9.45969298,-82.93404000
9.46225298,-82.93404000
9.46481298,-82.93404000
9.46737298,-82.93404000
9.46993298,-82.93404000
9.47249298,-82.93404000
9.47505298,-82.93404000
9.47761298,-82.93404000
9.48017298,-82.93404000
9.48273298,-82.93404000
9.48529298,-82.93404000
9.48785298,-87.40501000
9.49041298,-82.93404000
9.49297298,-82.93404000
9.49553298,-82.93404000
9.49809298,-82.93404000
9.50065298,-82.93404000
9.50321298,-82.93404000
9.50577298,-82.93404000
9.50833298,-82.93404000
9.51089298,-82.93404000
9.51345298,-82.93404000
9.51601298,-82.93404000
9.51857298,-82.93404000
9.52113298,-78.46308000
9.52369298,-82.93404000
9.52625298,-82.93404000
9.52881298,-82.93404000
9.53137298,-82.93404000
9.53393298,-82.93404000
9.53649298,-82.93404000
9.53905298,-82.93404000
9.54161298,-78.46308000
9.54417298,-82.93404000
9.54673298,-82.93404000
9.54929298,-82.93404000
9.55185298,-82.93404000
9.55441298,-82.93404000
9.55697298,-82.93404000
9.55953298,-82.93404000
9.56209298,-82.93404000
9.56465298,-82.93404000
9.56721298,-82.93404000
9.56977298,-78.46308000
9.57233298,-82.93404000
9.57489298,-82.93404000
9.57745298,-82.93404000
9.58001298,-82.93404000
9.58257298,-82.93404000
9.58513298,-82.93404000
9.58769298,-78.46308000
9.59025298,-82.93404000
9.59281298,-78.46308000
9.59537298,-78.46308000
9.59793298,-82.93404000
9.60049298,-78.46308000
9.60305298,-82.93404000
9.60561298,-78.46308000
9.60817298,-82.93404000
9.61073298,-78.46308000
9.61329298,-82.93404000
9.61585298,-78.46308000
9.61841298,-82.93404000
9.62097298,-82.93404000
9.62353298,-78.46308000
9.62609298,-82.93404000
9.62865298,-78.46308000
9.63121298,-78.46308000
9.63377298,-82.93404000
9.63633298,-78.46308000
9.63889298,-82.93404000
9.64145298,-82.93404000
9.64401298,-78.46308000
9.64657298,-78.46308000
9.64913298,-78.46308000
9.65169298,-82.93404000
9.65425298,-82.93404000
9.65681298,-78.46308000
9.65937298,-82.93404000
9.66193298,-78.46308000
9.66449298,-78.46308000
9.66705298,-78.46308000
9.66961298,-82.93404000
9.67217298,-78.46308000
9.67473298,-82.93404000
9.67729298,-78.46308000
9.67985298,-82.93404000
9.68241298,-78.46308000
9.68497298,-78.46308000
9.68753298,-78.46308000
9.69009298,-82.93404000
9.69265298,-78.46308000
9.69521298,-82.93404000
9.69777298,-82.93404000
9.70033298,-78.46308000
9.70289298,-82.93404000
9.70545298,-78.46308000
9.70801298,-82.93404000
9.71057298,-82.93404000
9.71313298,-78.46308000
9.71569298,-82.93404000
9.71825298,-82.93404000
9.72081298,-78.46308000
9.72337298,-78.46308000
9.72593298,-78.46308000
9.72849298,-78.46308000
9.73105298,-78.46308000
9.73361298,-78.46308000
9.73617298,-78.46308000
9.73873298,-78.46308000
9.74129298,-78.46308000
9.74385298,-78.46308000
9.74641298,-78.46308000
9.74897298,-78.46308000
9.75153298,-78.46308000
9.75409298,-78.46308000
9.75665298,-78.46308000
9.75921298,-78.46308000
9.76177298,-78.46308000
9.76433298,-78.46308000
9.76689298,-78.46308000
9.76945298,-78.46308000
9.77201298,-78.46308000
9.77457298,-78.46308000
9.77713298,-78.46308000
9.77969298,-78.46308000
9.78225298,-78.46308000
9.78481298,-78.46308000
9.78737298,-78.46308000
9.78993298,-78.46308000
9.79249298,-78.46308000
9.79505298,-78.46308000
9.79761298,-78.46308000
9.80017298,-78.46308000
9.80273298,-78.46308000
9.80529298,-78.46308000
9.80785298,-78.46308000
9.81041298,-78.46308000
9.81297298,-78.46308000
9.81553298,-78.46308000
9.81809298,-78.46308000
9.82065298,-78.46308000
9.82321298,-78.46308000
9.82577298,-78.46308000
9.82833298,-78.46308000
9.83089298,-78.46308000
9.83345298,-78.46308000
9.83601298,-78.46308000
9.83857298,-78.46308000
9.84113298,-78.46308000
9.84369298,-78.46308000
9.84625298,-78.46308000
9.84881298,-78.46308000
9.85137298,-78.46308000
9.85393298,-78.46308000
9.85649298,-78.46308000
9.85905298,-78.46308000
9.86161298,-78.46308000
9.86417298,-78.46308000
9.86673298,-78.46308000
9.86929298,-78.46308000
9.87185298,-78.46308000
9.87441298,-78.46308000
9.87697298,-78.46308000
9.87953298,-78.46308000
9.88209298,-78.46308000
9.88465298,-78.46308000
9.88721298,-78.46308000
9.88977298,-78.46308000
9.89233298,-78.46308000
9.89489298,-78.46308000
9.89745298,-78.46308000
9.90001298,-78.46308000
9.90257298,-78.46308000
9.90513298,-78.46308000
9.90769298,-78.46308000
9.91025298,-78.46308000
9.91281298,-78.46308000
9.91537298,-78.46308000
9.91793298,-78.46308000
9.92049298,-78.46308000
9.92305298,-78.46308000
9.92561298,-78.46308000
9.92817298,-78.46308000
9.93073298,-78.46308000
9.93329298,-78.46308000
9.93585298,-78.46308000
9.93841298,-78.46308000
9.94097298,-78.46308000
9.94353298,-78.46308000
9.94609298,-78.46308000
9.94865298,-78.46308000
9.95121298,-78.46308000
9.95377298,-78.46308000
9.95633298,-78.46308000
9.95889298,-78.46308000
9.96145298,-78.46308000
9.96401298,-78.46308000
9.96657298,-78.46308000
9.96913298,-78.46308000
9.97169298,-78.46308000
9.97425298,-78.46308000
9.97681298,-78.46308000
9.97937298,-78.46308000
9.98193298,-78.46308000
9.98449298,-78.46308000
9.98705298,-78.46308000
9.98961298,-78.46308000
9.99217298,-78.46308000
9.99473298,-78.46308000
9.99729298,-78.46308000
9.99985298,-78.46308000
10.00241298,-78.46308000
10.00497298,-78.46308000
10.00753298,-78.46308000
10.01009298,-78.46308000
10.01265298,-78.46308000
10.01521298,-78.46308000
10.01777298,-78.46308000
10.02033298,-78.46308000
10.02289298,-78.46308000
10.02545298,-78.46308000
10.02801298,-78.46308000
10.03057298,-78.46308000
10.03313298,-78.46308000
10.03569298,-78.46308000
10.03825298,-78.46308000
10.04081298,-78.46308000
10.04337298,-78.46308000
10.04593298,-78.46308000
10.04849298,-78.46308000
10.05105298,-78.46308000
10.05361298,-78.46308000
10.05617298,-78.46308000
10.05873298,-78.46308000
10.06129298,-78.46308000
10.06385298,-78.46308000
10.06641298,-78.46308000
10.06897298,-78.46308000
10.07153298,-78.46308000
10.07409298,-78.46308000
10.07665298,-78.46308000
10.07921298,-78.46308000
10.08177298,-78.46308000
10.08433298,-78.46308000
10.08689298,-78.46308000
10.08945298,-78.46308000
10.09201298,-78.46308000
10.09457298,-78.46308000
10.09713298,-78.46308000
10.09969298,-78.46308000
10.10225298,-78.46308000
10.10481298,-78.46308000
10.10737298,-78.46308000
10.10993298,-78.46308000
10.11249298,-78.46308000
10.11505298,-78.46308000
10.11761298,-78.46308000
10.12017298,-78.46308000
10.12273298,-78.46308000
10.12529298,-78.46308000
10.12785298,-78.46308000
10.13041298,-78.46308000
10.13297298,-78.46308000
10.13553298,-78.46308000
10.13809298,-78.46308000
10.14065298,-78.46308000
10.14321298,-78.46308000
10.14577298,-78.46308000
10.14833298,-78.46308000
10.15089298,-78.46308000
10.15345298,-78.46308000
10.15601298,-78.46308000
10.15857298,-78.46308000
10.16113298,-78.46308000
10.16369298,-78.46308000
10.16625298,-78.46308000
10.16881298,-78.46308000
10.17137298,-78.46308000
10.17393298,-78.46308000
10.17649298,-78.46308000
10.17905298,-78.46308000
10.18161298,-78.46308000
10.18417298,-78.46308000
10.18673298,-78.46308000
10.18929298,-78.46308000
10.19185298,-78.46308000
10.19441298,-78.46308000
10.19697298,-78.46308000
10.19953298,-78.46308000
10.20209298,-78.46308000
10.20465298,-78.46308000
10.20721298,-78.46308000
10.20977298,-78.46308000
10.21233298,-78.46308000
10.21489298,-78.46308000
10.21745298,-78.46308000
10.22001298,-78.46308000
10.22257298,-78.46308000
10.22513298,-78.46308000
10.22769298,-78.46308000
10.23025298,-78.46308000
10.23281298,-78.46308000
10.23537298,-73.99212000
10.23793298,-73.99212000
10.24049298,-78.46308000
10.24305298,-73.99212000
10.24561298,-78.46308000
10.24817298,-73.99212000
10.25073298,-78.46308000
10.25329298,-78.46308000
10.25585298,-78.46308000
10.25841298,-73.99212000
10.26097298,-73.99212000
10.26353298,-78.46308000
10.26609298,-78.46308000
10.26865298,-78.46308000
10.27121298,-78.46308000
10.27377298,-73.99212000
10.27633298,-78.46308000
10.27889298,-73.99212000
10.28145298,-78.46308000
10.28401298,-78.46308000
10.28657298,-73.99212000
10.28913298,-73.99212000
10.29169298,-73.99212000
10.29425298,-73.99212000
10.29681298,-78.46308000
10.29937298,-78.46308000
10.30193298,-73.99212000
10.30449298,-73.99212000
10.30705298,-73.99212000
10.30961298,-73.99212000
10.31217298,-73.99212000
10.31473298,-73.99212000
10.31729298,-73.99212000
10.31985298,-73.99212000
10.32241298,-78.46308000
10.32497298,-73.99212000
10.32753297,-78.46308000
10.33009297,-73.99212000
10.33265297,-78.46308000
10.33521297,-73.99212000
10.33777297,-73.99212000
10.34033297,-73.99212000
10.34289297,-78.46308000
10.34545297,-78.46308000
10.34801297,-78.46308000
10.35057297,-73.99212000
10.35313297,-78.46308000
10.35569297,-78.46308000
10.35825297,-78.46308000
10.36081297,-73.99212000
10.36337297,-73.99212000
10.36593297,-73.99212000
10.36849297,-73.99212000
10.37105297,-73.99212000
10.37361297,-73.99212000
10.37617297,-73.99212000
10.37873297,-73.99212000
10.38129297,-73.99212000
10.38385297,-73.99212000
10.38641297,-73.99212000
10.38897297,-73.99212000
10.39153297,-73.99212000
10.39409297,-73.99212000
10.39665297,-69.50591000
10.39921297,-73.99212000
10.40177297,-73.99212000
10.40433297,-73.99212000
10.40689297,-73.99212000
10.40945297,-73.99212000
10.41201297,-73.99212000
10.41457297,-73.99212000
10.41713297,-73.99212000
10.41969297,-73.99212000
10.42225297,-73.99212000
10.42481297,-73.99212000
10.42737297,-73.99212000
10.42993297,-73.99212000
10.43249297,-69.50591000
10.43505297,-73.99212000
10.43761297,-73.99212000
10.44017297,-73.99212000
10.44273297,-73.99212000
10.44529297,-73.99212000
10.44785297,-73.99212000
10.45041297,-69.50591000
10.45297297,-73.99212000
10.45553297,-73.99212000
10.45809297,-73.99212000
10.46065297,-73.99212000
10.46321297,-73.99212000
10.46577297,-73.99212000
10.46833297,-73.99212000
10.47089297,-69.50591000
10.47345297,-73.99212000
10.47601297,-73.99212000
10.47857297,-69.50591000
10.48113297,-73.99212000
10.48369297,-69.50591000
10.48625297,-73.99212000
10.48881297,-69.50591000
10.49137297,-73.99212000
10.49393297,-69.50591000
10.49649297,-73.99212000
10.49905297,-73.99212000
10.50161297,-73.99212000
10.50417297,-73.99212000
10.50673297,-73.99212000
10.50929297,-73.99212000
10.51185297,-73.99212000
10.51441297,-73.99212000
10.51697297,-73.99212000
10.51953297,-73.99212000
10.52209297,-73.99212000
10.52465297,-73.99212000
10.52721297,-73.99212000
10.52977297,-73.99212000
10.53233297,-73.99212000
10.53489297,-73.99212000
10.53745297,-69.50591000
10.54001297,-73.99212000
10.54257297,-73.99212000
10.54513297,-69.50591000
10.54769297,-69.50591000
10.55025297,-69.50591000
10.55281297,-69.50591000
10.55537297,-73.99212000
10.55793297,-73.99212000
10.56049297,-73.99212000
10.56305297,-73.99212000
10.56561297,-73.99212000
10.56817297,-69.50591000
10.57073297,-73.99212000
10.57329297,-73.99212000
10.57585297,-78.46308000
10.57841297,-73.99212000
10.58097297,-73.99212000
10.58353297,-73.99212000
10.58609297,-73.99212000
10.58865297,-73.99212000
10.59121297,-73.99212000
10.59377297,-73.99212000
10.59633297,-73.99212000
10.59889297,-73.99212000
10.60145297,-73.99212000
10.60401297,-73.99212000
10.60657297,-73.99212000
10.60913297,-73.99212000
10.61169297,-73.99212000
10.61425297,-73.99212000
10.61681297,-73.99212000
10.61937297,-73.99212000
10.62193297,-73.99212000
10.62449297,-73.99212000
10.62705297,-73.99212000
10.62961297,-73.99212000
10.63217297,-73.99212000
10.63473297,-73.99212000
10.63729297,-73.99212000
10.63985297,-73.99212000
10.64241297,-73.99212000
10.64497297,-73.99212000
10.64753297,-73.99212000
10.65009297,-73.99212000
10.65265297,-73.99212000
10.65521297,-69.50591000
10.65777297,-73.99212000
10.66033297,-73.99212000
10.66289297,-73.99212000
10.66545297,-73.99212000
10.66801297,-78.46308000
10.67057297,-78.46308000
10.67313297,-78.46308000
10.67569297,-73.99212000
10.67825297,-73.99212000
10.68081297,-73.99212000
10.68337297,-73.99212000
10.68593297,-73.99212000
10.68849297,-73.99212000
10.69105297,-73.99212000
10.69361297,-73.99212000
10.69617297,-73.99212000
10.69873297,-73.99212000
10.70129297,-73.99212000
10.70385297,-73.99212000
10.70641297,-73.99212000
10.70897297,-73.99212000
10.71153297,-73.99212000
10.71409297,-73.99212000
10.71665297,-73.99212000
10.71921297,-73.99212000
10.72177297,-73.99212000
10.72433297,-73.99212000
10.72689297,-73.99212000
10.72945297,-73.99212000
10.73201297,-73.99212000
10.73457297,-73.99212000
10.73713297,-73.99212000
10.73969297,-73.99212000
10.74225297,-73.99212000
10.74481297,-73.99212000
10.74737297,-73.99212000
10.74993297,-69.50591000
10.75249297,-73.99212000
10.75505297,-73.99212000
10.75761297,-73.99212000
10.76017297,-69.50591000
10.76273297,-73.99212000
10.76529297,-78.46308000
10.76785297,-73.99212000
10.77041297,-73.99212000
10.77297297,-73.99212000
10.77553297,-73.99212000
10.77809297,-73.99212000
10.78065297,-73.99212000
10.78321297,-73.99212000
10.78577297,-73.99212000
10.78833297,-73.99212000
10.79089297,-78.46308000
10.79345297,-73.99212000
10.79601297,-73.99212000
10.79857297,-69.50591000
10.80113297,-73.99212000
10.80369297,-73.99212000
10.80625297,-73.99212000
10.80881297,-73.99212000
10.81137297,-73.99212000
10.81393297,-73.99212000
10.81649297,-73.99212000
10.81905297,-73.99212000
10.82161297,-73.99212000
10.82417297,-73.99212000
10.82673297,-73.99212000
10.82929297,-73.99212000
10.83185297,-73.99212000
10.83441297,-73.99212000
10.83697297,-73.99212000
10.83953297,-73.99212000
10.84209297,-73.99212000
10.84465297,-73.99212000
10.84721297,-73.99212000
10.84977297,-73.99212000
10.85233297,-73.99212000
10.85489297,-73.99212000
10.85745297,-69.50591000
10.86001297,-73.99212000
10.86257297,-73.99212000
10.86513297,-73.99212000
10.86769297,-73.99212000
10.87025297,-69.50591000
10.87281297,-69.50591000
10.87537297,-73.99212000
10.87793297,-73.99212000
10.88049297,-73.99212000
10.88305297,-73.99212000
10.88561297,-73.99212000
10.88817297,-69.50591000
10.89073297,-73.99212000
10.89329297,-78.46308000
10.89585297,-73.99212000
10.89841297,-73.99212000
10.90097297,-73.99212000
10.90353297,-69.50591000
10.90609297,-78.46308000
10.90865297,-73.99212000
10.91121297,-73.99212000
10.91377297,-73.99212000
10.91633297,-73.99212000
10.91889297,-73.99212000
10.92145297,-73.99212000
10.92401297,-73.99212000
10.92657297,-78.46308000
10.92913297,-78.46308000
10.93169297,-73.99212000
10.93425297,-78.46308000
10.93681297,-78.46308000
10.93937297,-78.46308000
10.94193297,-73.99212000
10.94449297,-78.46308000
10.94705297,-69.50591000
10.94961297,-73.99212000
10.95217297,-78.46308000
10.95473297,-78.46308000
10.95729297,-73.99212000
10.95985297,-78.46308000
10.96241297,-78.46308000
10.96497297,-73.99212000
10.96753297,-78.46308000
10.97009297,-73.99212000
10.97265297,-73.99212000
10.97521297,-73.99212000
10.97777297,-73.99212000
10.98033297,-73.99212000
10.98289297,-78.46308000
10.98545297,-73.99212000
10.98801297,-73.99212000
10.99057297,-78.46308000
10.99313297,-73.99212000
10.99569297,-78.46308000
10.99825297,-73.99212000
11.00081297,-73.99212000
11.00337297,-78.46308000
11.00593297,-73.99212000
11.00849297,-78.46308000
11.01105297,-78.46308000
11.01361297,-78.46308000
11.01617297,-78.46308000
11.01873297,-78.46308000
11.02129297,-73.99212000
11.02385297,-78.46308000
11.02641297,-73.99212000
11.02897297,-73.99212000
11.03153297,-78.46308000
11.03409297,-78.46308000
11.03665297,-78.46308000
11.03921297,-78.46308000
11.04177297,-78.46308000
11.04433297,-78.46308000
11.04689297,-78.46308000
11.04945297,-73.99212000
11.05201297,-78.46308000
11.05457297,-73.99212000
11.05713297,-78.46308000
11.05969297,-73.99212000
11.06225297,-78.46308000
11.06481297,-73.99212000
11.06737297,-78.46308000
11.06993297,-73.99212000
11.07249297,-73.99212000
11.07505297,-78.46308000
11.07761297,-78.46308000
11.08017297,-78.46308000
11.08273297,-73.99212000
11.08529297,-73.99212000
11.08785297,-73.99212000
11.09041297,-73.99212000
11.09297297,-73.99212000
11.09553297,-78.46308000
11.09809297,-78.46308000
11.10065297,-78.46308000
11.10321297,-78.46308000
11.10577297,-73.99212000
11.10833297,-73.99212000
11.11089297,-78.46308000
11.11345297,-78.46308000
11.11601297,-78.46308000
11.11857297,-73.99212000
11.12113297,-78.46308000
11.12369297,-78.46308000
11.12625297,-73.99212000
11.12881297,-78.46308000
11.13137297,-73.99212000
11.13393297,-73.99212000
11.13649297,-78.46308000
11.13905297,-78.46308000
11.14161297,-78.46308000
11.14417297,-78.46308000
11.14673297,-73.99212000
11.14929297,-78.46308000
11.15185297,-78.46308000
11.15441297,-73.99212000
11.15697297,-78.46308000
11.15953297,-78.46308000
11.16209297,-78.46308000
11.16465297,-78.46308000
11.16721297,-78.46308000
11.16977297,-78.46308000
11.17233297,-73.99212000
11.17489297,-73.99212000
11.17745297,-73.99212000
11.18001297,-73.99212000
11.18257297,-73.99212000
11.18513297,-78.46308000
11.18769297,-78.46308000
11.19025297,-78.46308000
11.19281297,-78.46308000
11.19537297,-78.46308000
11.19793297,-78.46308000
11.20049297,-73.99212000
11.20305297,-73.99212000
11.20561297,-78.46308000
11.20817297,-78.46308000
11.21073297,-73.99212000
11.21329297,-78.46308000
11.21585297,-73.99212000
11.21841297,-73.99212000
11.22097297,-73.99212000
11.22353297,-73.99212000
11.22609297,-78.46308000
11.22865297,-78.46308000
11.23121297,-73.99212000
11.23377297,-73.99212000
11.23633297,-73.99212000
11.23889297,-73.99212000
11.24145297,-73.99212000
11.24401297,-78.46308000
11.24657297,-73.99212000
11.24913297,-73.99212000
11.25169297,-78.46308000
11.25425297,-73.99212000
11.25681297,-73.99212000
11.25937297,-73.99212000
11.26193297,-73.99212000
11.26449297,-73.99212000
11.26705297,-73.99212000
11.26961297,-73.99212000
11.27217297,-73.99212000
11.27473297,-73.99212000
11.27729297,-73.99212000
11.27985297,-73.99212000
11.28241297,-73.99212000
11.28497297,-73.99212000
11.28753297,-73.99212000
11.29009297,-73.99212000
11.29265297,-73.99212000
11.29521297,-78.46308000
11.29777297,-78.46308000
11.30033297,-73.99212000
11.30289297,-73.99212000
11.30545297,-73.99212000
11.30801297,-73.99212000
11.31057297,-73.99212000
11.31313297,-73.99212000
11.31569297,-73.99212000
11.31825297,-73.99212000
11.32081297,-73.99212000
11.32337297,-73.99212000
11.32593297,-73.99212000
11.32849297,-78.46308000
11.33105297,-78.46308000
11.33361297,-73.99212000
11.33617297,-78.46308000
11.33873297,-73.99212000
11.34129297,-73.99212000
11.34385297,-73.99212000
11.34641297,-73.99212000
11.34897297,-73.99212000
11.35153297,-73.99212000
11.35409297,-73.99212000
11.35665297,-73.99212000
11.35921297,-73.99212000
11.36177297,-73.99212000
11.36433297,-73.99212000
11.36689297,-73.99212000
11.36945297,-73.99212000
11.37201297,-73.99212000
11.37457297,-73.99212000
11.37713297,-78.46308000
11.37969297,-73.99212000
11.38225297,-73.99212000
11.38481297,-73.99212000
11.38737297,-78.46308000
11.38993297,-73.99212000
11.39249297,-73.99212000
11.39505297,-78.46308000
11.39761297,-78.46308000
11.40017297,-73.99212000
11.40273297,-78.46308000
11.40529297,-78.46308000
11.40785297,-73.99212000
11.41041297,-73.99212000
11.41297297,-73.99212000
11.41553297,-78.46308000
11.41809297,-73.99212000
11.42065297,-78.46308000
11.42321297,-78.46308000
11.42577297,-78.46308000
11.42833297,-78.46308000
11.43089297,-78.46308000
11.43345297,-78.46308000
11.43601297,-73.99212000
11.43857297,-73.99212000
11.44113297,-73.99212000
11.44369297,-73.99212000
11.44625297,-73.99212000
11.44881297,-73.99212000
11.45137297,-73.99212000
11.45393297,-78.46308000
11.45649297,-78.46308000
11.45905297,-78.46308000
11.46161297,-78.46308000
11.46417297,-78.46308000
11.46673297,-73.99212000
11.46929297,-69.50591000
11.47185297,-78.46308000
11.47441297,-73.99212000
11.47697297,-78.46308000
11.47953297,-78.46308000
11.48209297,-73.99212000
11.48465297,-73.99212000
11.48721297,-78.46308000
11.48977297,-73.99212000
11.49233297,-73.99212000
11.49489297,-73.99212000
11.49745297,-73.99212000
11.50001297,-78.46308000
11.50257297,-78.46308000
11.50513297,-78.46308000
11.50769297,-78.46308000
11.51025297,-73.99212000
11.51281297,-73.99212000
11.51537297,-73.99212000
11.51793297,-73.99212000
11.52049297,-73.99212000
11.52305297,-73.99212000
11.52561297,-73.99212000
11.52817297,-73.99212000
11.53073297,-73.99212000
11.53329297,-73.99212000
11.53585297,-73.99212000
11.53841297,-73.99212000
11.54097297,-69.50591000
11.54353297,-73.99212000
11.54609297,-73.99212000
11.54865297,-73.99212000
11.55121297,-69.50591000
11.55377297,-73.99212000
11.55633297,-78.46308000
11.55889297,-78.46308000
11.56145297,-73.99212000
11.56401297,-73.99212000
11.56657297,-73.99212000
11.56913297,-73.99212000
11.57169297,-73.99212000
11.57425297,-73.99212000
11.57681297,-73.99212000
11.57937297,-73.99212000
11.58193297,-69.50591000
11.58449297,-73.99212000
11.58705297,-73.99212000
11.58961297,-73.99212000
11.59217297,-73.99212000
11.59473297,-73.99212000
11.59729297,-73.99212000
11.59985297,-73.99212000
11.60241297,-73.99212000
11.60497297,-73.99212000
11.60753297,-73.99212000
11.61009297,-69.50591000
11.61265297,-73.99212000
11.61521297,-73.99212000
11.61777297,-73.99212000
11.62033297,-73.99212000
11.62289297,-73.99212000
11.62545297,-73.99212000
11.62801297,-69.50591000
11.63057297,-73.99212000
11.63313297,-73.99212000
11.63569297,-73.99212000
11.63825297,-69.50591000
11.64081297,-73.99212000
11.64337297,-73.99212000
11.64593297,-73.99212000
11.64849297,-73.99212000
11.65105297,-73.99212000
11.65361297,-73.99212000
11.65617297,-73.99212000
11.65873297,-73.99212000
11.66129297,-73.99212000
11.66385297,-73.99212000
11.66641297,-73.99212000
11.66897297,-73.99212000
11.67153297,-73.99212000
11.67409297,-78.46308000
11.67665297,-73.99212000
11.67921297,-73.99212000
11.68177297,-73.99212000
11.68433297,-73.99212000
11.68689297,-73.99212000
11.68945297,-73.99212000
11.69201297,-73.99212000
11.69457297,-73.99212000
11.69713297,-78.46308000
11.69969297,-73.99212000
11.70225297,-73.99212000
11.70481297,-73.99212000
11.70737297,-73.99212000
11.70993297,-69.50591000
11.71249297,-73.99212000
11.71505297,-73.99212000
11.71761297,-73.99212000
11.72017297,-73.99212000
11.72273297,-73.99212000
11.72529297,-73.99212000
11.72785297,-73.99212000
11.73041297,-73.99212000
11.73297297,-73.99212000
11.73553297,-73.99212000
11.73809297,-73.99212000
11.74065297,-73.99212000
11.74321297,-73.99212000
11.74577297,-73.99212000
11.74833297,-73.99212000
11.75089297,-73.99212000
11.75345297,-73.99212000
11.75601297,-73.99212000
11.75857297,-73.99212000
11.76113297,-73.99212000
11.76369297,-73.99212000
11.76625297,-73.99212000
11.76881297,-69.50591000
11.77137297,-73.99212000
11.77393297,-69.50591000
11.77649297,-73.99212000
11.77905297,-73.99212000
11.78161297,-69.50591000
11.78417297,-73.99212000
11.78673297,-73.99212000
11.78929297,-73.99212000
11.79185297,-73.99212000
11.79441297,-73.99212000
11.79697297,-73.99212000
11.79953297,-73.99212000
11.80209297,-73.99212000
11.80465297,-73.99212000
11.80721297,-73.99212000
11.80977297,-73.99212000
11.81233297,-73.99212000
11.81489297,-73.99212000
11.81745297,-73.99212000
11.82001297,-73.99212000
11.82257297,-73.99212000
11.82513297,-73.99212000
11.82769297,-73.99212000
11.83025297,-69.50591000
11.83281297,-78.46308000
11.83537297,-73.99212000
11.83793297,-73.99212000
11.84049297,-73.99212000
11.84305297,-73.99212000
11.84561297,-73.99212000
11.84817297,-73.99212000
11.85073297,-78.46308000
11.85329297,-78.46308000
11.85585297,-73.99212000
11.85841297,-73.99212000
11.86097297,-73.99212000
11.86353297,-78.46308000
11.86609297,-73.99212000
11.86865297,-73.99212000
11.87121297,-73.99212000
11.87377297,-73.99212000
11.87633297,-73.99212000
11.87889297,-73.99212000
11.88145297,-73.99212000
11.88401297,-73.99212000
11.88657297,-73.99212000
11.88913297,-78.46308000
11.89169297,-78.46308000
11.89425297,-73.99212000
11.89681297,-78.46308000
11.89937297,-73.99212000
11.90193297,-73.99212000
11.90449297,-78.46308000
11.90705297,-78.46308000
11.90961297,-78.46308000
11.91217297,-78.46308000
11.91473297,-78.46308000
11.91729297,-73.99212000
11.91985297,-78.46308000
11.92241297,-78.46308000
11.92497297,-73.99212000
11.92753297,-78.46308000
11.93009297,-73.99212000
11.93265297,-78.46308000
11.93521297,-73.99212000
11.93777297,-78.46308000
11.94033297,-78.46308000
11.94289297,-78.46308000
11.94545297,-73.99212000
11.94801297,-73.99212000
11.95057297,-78.46308000
11.95313297,-78.46308000
11.95569297,-73.99212000
11.95825297,-73.99212000
11.96081297,-78.46308000
11.96337297,-78.46308000
11.96593297,-73.99212000
11.96849297,-78.46308000
11.97105297,-73.99212000
11.97361296,-73.99212000
11.97617296,-73.99212000
11.97873296,-78.46308000
11.98129296,-78.46308000
11.98385296,-78.46308000
11.98641296,-78.46308000
11.98897296,-73.99212000
11.99153296,-78.46308000
11.99409296,-73.99212000
11.99665296,-73.99212000
11.99921296,-78.46308000
12.00177296,-78.46308000
12.00433296,-78.46308000
12.00689296,-78.46308000
12.00945296,-78.46308000
12.01201296,-78.46308000
12.01457296,-73.99212000
12.01713296,-78.46308000
12.01969296,-78.46308000
12.02225296,-73.99212000
12.02481296,-73.99212000
12.02737296,-78.46308000
12.02993296,-78.46308000
12.03249296,-78.46308000
12.03505296,-78.46308000
12.03761296,-78.46308000
12.04017296,-78.46308000
12.04273296,-73.99212000
12.04529296,-78.46308000
12.04785296,-78.46308000
12.05041296,-78.46308000
12.05297296,-78.46308000
12.05553296,-78.46308000
12.05809296,-78.46308000
12.06065296,-78.46308000
12.06321296,-73.99212000
12.06577296,-73.99212000
12.06833296,-78.46308000
12.07089296,-73.99212000
12.07345296,-73.99212000
12.07601296,-73.99212000
12.07857296,-78.46308000
12.08113296,-73.99212000
12.08369296,-78.46308000
12.08625296,-73.99212000
12.08881296,-73.99212000
12.09137296,-73.99212000
12.09393296,-78.46308000
12.09649296,-73.99212000
12.09905296,-78.46308000
12.10161296,-73.99212000
12.10417296,-73.99212000
12.10673296,-73.99212000
12.10929296,-73.99212000
12.11185296,-73.99212000
12.11441296,-78.46308000
12.11697296,-78.46308000
12.11953296,-73.99212000
12.12209296,-73.99212000
12.12465296,-69.50591000
12.12721296,-73.99212000
12.12977296,-73.99212000
12.13233296,-73.99212000
12.13489296,-73.99212000
12.13745296,-73.99212000
12.14001296,-73.99212000
12.14257296,-73.99212000
12.14513296,-73.99212000
12.14769296,-73.99212000
12.15025296,-73.99212000
12.15281296,-73.99212000
12.15537296,-73.99212000
12.15793296,-73.99212000
12.16049296,-73.99212000
12.16305296,-73.99212000
12.16561296,-73.99212000
12.16817296,-73.99212000
12.17073296,-73.99212000
12.17329296,-73.99212000
12.17585296,-73.99212000
12.17841296,-73.99212000
12.18097296,-73.99212000
12.18353296,-73.99212000
12.18609296,-73.99212000
12.18865296,-73.99212000
12.19121296,-73.99212000
12.19377296,-73.99212000
12.19633296,-73.99212000
12.19889296,-73.99212000
12.20145296,-73.99212000
12.20401296,-73.99212000
12.20657296,-73.99212000
12.20913296,-69.50591000
12.21169296,-73.99212000
12.21425296,-73.99212000
12.21681296,-73.99212000
12.21937296,-69.50591000
12.22193296,-73.99212000
12.22449296,-73.99212000
12.22705296,-73.99212000
12.22961296,-69.50591000
12.23217296,-69.50591000
12.23473296,-73.99212000
12.23729296,-69.50591000
12.23985296,-73.99212000
12.24241296,-73.99212000
12.24497296,-73.99212000
12.24753296,-69.50591000
12.25009296,-69.50591000
12.25265296,-69.50591000
12.25521296,-69.50591000
12.25777296,-69.50591000
12.26033296,-73.99212000
12.26289296,-69.50591000
12.26545296,-73.99212000
12.26801296,-73.99212000
12.27057296,-73.99212000
12.27313296,-73.99212000
12.27569296,-69.50591000
12.27825296,-69.50591000
12.28081296,-73.99212000
12.28337296,-73.99212000
12.28593296,-73.99212000
12.28849296,-69.50591000
12.29105296,-69.50591000
12.29361296,-69.50591000
12.29617296,-69.50591000
12.29873296,-69.50591000
12.30129296,-73.99212000
12.30385296,-73.99212000
12.30641296,-69.50591000
12.30897296,-73.99212000
12.31153296,-69.50591000
12.31409296,-69.50591000
12.31665296,-73.99212000
12.31921296,-69.50591000
12.32177296,-69.50591000
12.32433296,-73.99212000
12.32689296,-73.99212000
12.32945296,-69.50591000
12.33201296,-69.50591000
12.33457296,-73.99212000
12.33713296,-69.50591000
12.33969296,-69.50591000
12.34225296,-69.50591000
12.34481296,-73.99212000
12.34737296,-69.50591000
12.34993296,-69.50591000
12.35249296,-73.99212000
12.35505296,-73.99212000
12.35761296,-73.99212000
12.36017296,-73.99212000
12.36273296,-69.50591000
12.36529296,-69.50591000
12.36785296,-73.99212000
12.37041296,-73.99212000
12.37297296,-73.99212000
12.37553296,-73.99212000
12.37809296,-73.99212000
12.38065296,-69.50591000
12.38321296,-73.99212000
12.38577296,-73.99212000
12.38833296,-73.99212000
12.39089296,-69.50591000
12.39345296,-69.50591000
12.39601296,-69.50591000
12.39857296,-73.99212000
12.40113296,-73.99212000
12.40369296,-73.99212000
12.40625296,-73.99212000
12.40881296,-69.50591000
12.41137296,-73.99212000
12.41393296,-73.99212000
12.41649296,-73.99212000
12.41905296,-73.99212000
12.42161296,-73.99212000
12.42417296,-69.50591000
12.42673296,-73.99212000
12.42929296,-73.99212000
12.43185296,-73.99212000
12.43441296,-73.99212000
12.43697296,-73.99212000
12.43953296,-73.99212000
12.44209296,-73.99212000
12.44465296,-73.99212000
12.44721296,-73.99212000
12.44977296,-73.99212000
12.45233296,-73.99212000
12.45489296,-73.99212000
12.45745296,-73.99212000
12.46001296,-73.99212000
12.46257296,-73.99212000
12.46513296,-73.99212000
12.46769296,-73.99212000
12.47025296,-73.99212000
12.47281296,-73.99212000
12.47537296,-73.99212000
12.47793296,-73.99212000
12.48049296,-73.99212000
12.48305296,-73.99212000
12.48561296,-73.99212000
12.48817296,-73.99212000
12.49073296,-73.99212000
12.49329296,-73.99212000
12.49585296,-73.99212000
12.49841296,-73.99212000
12.50097296,-73.99212000
12.50353296,-73.99212000
12.50609296,-73.99212000
12.50865296,-73.99212000
12.51121296,-73.99212000
12.51377296,-73.99212000
12.51633296,-73.99212000
12.51889296,-73.99212000
12.52145296,-69.50591000
12.52401296,-73.99212000
12.52657296,-78.46308000
12.52913296,-69.50591000
12.53169296,-73.99212000
12.53425296,-73.99212000
12.53681296,-73.99212000
12.53937296,-73.99212000
12.54193296,-73.99212000
12.54449296,-73.99212000
12.54705296,-73.99212000
12.54961296,-73.99212000
12.55217296,-73.99212000
12.55473296,-73.99212000
12.55729296,-73.99212000
12.55985296,-73.99212000
12.56241296,-78.46308000
12.56497296,-73.99212000
12.56753296,-78.46308000
12.57009296,-73.99212000
12.57265296,-73.99212000
12.57521296,-73.99212000
12.57777296,-73.99212000
12.58033296,-73.99212000
12.58289296,-69.50591000
12.58545296,-73.99212000
12.58801296,-73.99212000
12.59057296,-78.46308000
12.59313296,-73.99212000
12.59569296,-73.99212000
12.59825296,-73.99212000
12.60081296,-78.46308000
12.60337296,-73.99212000
12.60593296,-73.99212000
12.60849296,-73.99212000
12.61105296,-73.99212000
12.61361296,-73.99212000
12.61617296,-78.46308000
12.61873296,-78.46308000
12.62129296,-73.99212000
12.62385296,-73.99212000
12.62641296,-73.99212000
12.62897296,-78.46308000
12.63153296,-73.99212000
12.63409296,-73.99212000
12.63665296,-73.99212000
12.63921296,-73.99212000
12.64177296,-73.99212000
12.64433296,-73.99212000
12.64689296,-73.99212000
12.64945296,-78.46308000
12.65201296,-73.99212000
12.65457296,-73.99212000
12.65713296,-78.46308000
12.65969296,-73.99212000
12.66225296,-73.99212000
12.66481296,-73.99212000
12.66737296,-73.99212000
12.66993296,-73.99212000
12.67249296,-73.99212000
12.67505296,-73.99212000
12.67761296,-69.50591000
12.68017296,-78.46308000
12.68273296,-78.46308000
12.68529296,-73.99212000
12.68785296,-73.99212000
12.69041296,-78.46308000
12.69297296,-78.46308000
12.69553296,-78.46308000
12.69809296,-78.46308000
12.70065296,-73.99212000
12.70321296,-73.99212000
12.70577296,-73.99212000
12.70833296,-73.99212000
12.71089296,-78.46308000
12.71345296,-78.46308000
12.71601296,-73.99212000
12.71857296,-73.99212000
12.72113296,-78.46308000
12.72369296,-73.99212000
12.72625296,-73.99212000
12.72881296,-73.99212000
12.73137296,-73.99212000
12.73393296,-78.46308000
12.73649296,-78.46308000
12.73905296,-78.46308000
12.74161296,-73.99212000
12.74417296,-73.99212000
12.74673296,-78.46308000
12.74929296,-73.99212000
12.75185296,-78.46308000
12.75441296,-73.99212000
12.75697296,-73.99212000
12.75953296,-73.99212000
12.76209296,-73.99212000
12.76465296,-78.46308000
12.76721296,-78.46308000
12.76977296,-78.46308000
12.77233296,-73.99212000
12.77489296,-78.46308000
12.77745296,-78.46308000
12.78001296,-78.46308000
12.78257296,-78.46308000
12.78513296,-78.46308000
12.78769296,-78.46308000
12.79025296,-78.46308000
12.79281296,-78.46308000
12.79537296,-78.46308000
12.79793296,-73.99212000
12.80049296,-78.46308000
12.80305296,-78.46308000
12.80561296,-78.46308000
12.80817296,-78.46308000
12.81073296,-78.46308000
12.81329296,-78.46308000
12.81585296,-78.46308000
12.81841296,-73.99212000
12.82097296,-78.46308000
12.82353296,-78.46308000
12.82609296,-78.46308000
12.82865296,-78.46308000
12.83121296,-78.46308000
12.83377296,-78.46308000
12.83633296,-78.46308000
12.83889296,-78.46308000
12.84145296,-78.46308000
12.84401296,-78.46308000
12.84657296,-78.46308000
12.84913296,-78.46308000
12.85169296,-78.46308000
12.85425296,-78.46308000
12.85681296,-78.46308000
12.85937296,-78.46308000
12.86193296,-78.46308000
12.86449296,-78.46308000
12.86705296,-78.46308000
12.86961296,-78.46308000
12.87217296,-78.46308000
12.87473296,-78.46308000
12.87729296,-78.46308000
12.87985296,-78.46308000
12.88241296,-78.46308000
12.88497296,-78.46308000
12.88753296,-78.46308000
12.89009296,-78.46308000
12.89265296,-78.46308000
12.89521296,-78.46308000
12.89777296,-78.46308000
12.90033296,-78.46308000
12.90289296,-78.46308000
12.90545296,-78.46308000
12.90801296,-78.46308000
12.91057296,-78.46308000
12.91313296,-78.46308000
12.91569296,-78.46308000
12.91825296,-78.46308000
12.92081296,-78.46308000
12.92337296,-73.99212000
12.92593296,-78.46308000
12.92849296,-78.46308000
12.93105296,-78.46308000
12.93361296,-78.46308000
12.93617296,-78.46308000
12.93873296,-78.46308000
12.94129296,-78.46308000
12.94385296,-73.99212000
12.94641296,-78.46308000
12.94897296,-73.99212000
12.95153296,-78.46308000
12.95409296,-78.46308000
12.95665296,-78.46308000
12.95921296,-73.99212000
12.96177296,-73.99212000
12.96433296,-78.46308000
12.96689296,-73.99212000
12.96945296,-78.46308000
12.97201296,-78.46308000
12.97457296,-73.99212000
12.97713296,-73.99212000
12.97969296,-78.46308000
12.98225296,-78.46308000
12.98481296,-78.46308000
12.98737296,-78.46308000
12.98993296,-78.46308000
12.99249296,-78.46308000
12.99505296,-78.46308000
12.99761296,-78.46308000
13.00017296,-78.46308000
13.00273296,-78.46308000
13.00529296,-78.46308000
13.00785296,-78.46308000
13.01041296,-78.46308000
13.01297296,-73.99212000
13.01553296,-78.46308000
13.01809296,-73.99212000
13.02065296,-78.46308000
13.02321296,-78.46308000
13.02577296,-78.46308000
13.02833296,-78.46308000
13.03089296,-78.46308000
13.03345296,-78.46308000
13.03601296,-78.46308000
13.03857296,-78.46308000
13.04113296,-73.99212000
13.04369296,-73.99212000
13.04625296,-73.99212000
13.04881296,-73.99212000
13.05137296,-78.46308000
13.05393296,-78.46308000
13.05649296,-78.46308000
13.05905296,-73.99212000
13.06161296,-78.46308000
13.06417296,-78.46308000
13.06673296,-73.99212000
13.06929296,-73.99212000
13.07185296,-78.46308000
13.07441296,-73.99212000
13.07697296,-73.99212000
13.07953296,-78.46308000
13.08209296,-73.99212000
13.08465296,-73.99212000
13.08721296,-78.46308000
13.08977296,-73.99212000
13.09233296,-78.46308000
13.09489296,-73.99212000
13.09745296,-78.46308000
13.10001296,-78.46308000
13.10257296,-73.99212000
13.10513296,-73.99212000
13.10769296,-78.46308000
13.11025296,-73.99212000
13.11281296,-73.99212000
13.11537296,-73.99212000
13.11793296,-73.99212000
13.12049296,-78.46308000
13.12305296,-73.99212000
13.12561296,-78.46308000
13.12817296,-73.99212000
13.13073296,-73.99212000
13.13329296,-73.99212000
13.13585296,-73.99212000
13.13841296,-73.99212000
13.14097296,-73.99212000
13.14353296,-73.99212000
13.14609296,-73.99212000
13.14865296,-73.99212000
13.15121296,-73.99212000
13.15377296,-78.46308000
13.15633296,-73.99212000
13.15889296,-73.99212000
13.16145296,-73.99212000
13.16401296,-73.99212000
13.16657296,-73.99212000
13.16913296,-73.99212000
13.17169296,-73.99212000
13.17425296,-73.99212000
13.17681296,-73.99212000
13.17937296,-78.46308000
13.18193296,-78.46308000
13.18449296,-78.46308000
13.18705296,-73.99212000
13.18961296,-73.99212000
13.19217296,-73.99212000
13.19473296,-78.46308000
13.19729296,-78.46308000
13.19985296,-73.99212000
13.20241296,-69.50591000
13.20497296,-73.99212000
13.20753296,-73.99212000
13.21009296,-73.99212000
13.21265296,-73.99212000
13.21521296,-73.99212000
13.21777296,-73.99212000
13.22033296,-73.99212000
13.22289296,-73.99212000
13.22545296,-73.99212000
13.22801296,-73.99212000
13.23057296,-73.99212000
13.23313296,-73.99212000
13.23569296,-73.99212000
13.23825296,-69.50591000
13.24081296,-73.99212000
13.24337296,-73.99212000
13.24593296,-69.50591000
13.24849296,-73.99212000
13.25105296,-69.50591000
13.25361296,-73.99212000
13.25617296,-73.99212000
13.25873296,-73.99212000
13.26129296,-73.99212000
13.26385296,-69.50591000
13.26641296,-73.99212000
13.26897296,-78.46308000
13.27153296,-73.99212000
13.27409296,-69.50591000
13.27665296,-73.99212000
13.27921296,-73.99212000
13.28177296,-73.99212000
13.28433296,-73.99212000
13.28689296,-69.50591000
13.28945296,-73.99212000
13.29201296,-73.99212000
13.29457296,-73.99212000
13.29713296,-73.99212000
13.29969296,-73.99212000
13.30225296,-69.50591000
13.30481296,-69.50591000
13.30737296,-73.99212000
13.30993296,-73.99212000
13.31249296,-73.99212000
13.31505296,-73.99212000
13.31761296,-73.99212000
13.32017296,-73.99212000
13.32273296,-69.50591000
13.32529296,-73.99212000
13.32785296,-73.99212000
13.33041296,-73.99212000
13.33297296,-73.99212000
13.33553296,-69.50591000
13.33809296,-73.99212000
13.34065296,-69.50591000
13.34321296,-69.50591000
13.34577296,-73.99212000
13.34833296,-73.99212000
13.35089296,-73.99212000
13.35345296,-69.50591000
13.35601296,-73.99212000
13.35857296,-73.99212000
13.36113296,-69.50591000
13.36369296,-73.99212000
13.36625296,-73.99212000
13.36881296,-73.99212000
13.37137296,-73.99212000
13.37393296,-73.99212000
13.37649296,-73.99212000
13.37905296,-78.46308000
13.38161296,-73.99212000
13.38417296,-73.99212000
13.38673296,-73.99212000
13.38929296,-73.99212000
13.39185296,-73.99212000
13.39441296,-73.99212000
13.39697296,-69.50591000
13.39953296,-73.99212000
13.40209296,-73.99212000
13.40465296,-73.99212000
13.40721296,-73.99212000
13.40977296,-73.99212000
13.41233296,-78.46308000
13.41489296,-73.99212000
13.41745296,-69.50591000
13.42001296,-73.99212000
13.42257296,-73.99212000
13.42513296,-73.99212000
13.42769296,-73.99212000
13.43025296,-73.99212000
13.43281296,-73.99212000
13.43537296,-73.99212000
13.43793296,-78.46308000
13.44049296,-73.99212000
13.44305296,-73.99212000
13.44561296,-78.46308000
13.44817296,-73.99212000
13.45073296,-73.99212000
13.45329296,-73.99212000
13.45585296,-73.99212000
13.45841296,-73.99212000
13.46097296,-73.99212000
13.46353296,-78.46308000
13.46609296,-78.46308000
13.46865296,-73.99212000
13.47121296,-73.99212000
13.47377296,-73.99212000
13.47633296,-73.99212000
13.47889296,-73.99212000
13.48145296,-78.46308000
13.48401296,-73.99212000
13.48657296,-73.99212000
13.48913296,-73.99212000
13.49169296,-73.99212000
13.49425296,-78.46308000
13.49681296,-73.99212000
13.49937296,-73.99212000
13.50193296,-78.46308000
13.50449296,-73.99212000
13.50705296,-73.99212000
13.50961296,-73.99212000
13.51217296,-73.99212000
13.51473296,-73.99212000
13.51729296,-73.99212000
13.51985296,-73.99212000
13.52241296,-73.99212000
13.52497296,-78.46308000
13.52753296,-78.46308000
13.53009296,-73.99212000
13.53265296,-73.99212000
13.53521296,-78.46308000
13.53777296,-78.46308000
13.54033296,-78.46308000
13.54289296,-73.99212000
13.54545296,-73.99212000
13.54801296,-78.46308000
13.55057296,-78.46308000
13.55313296,-73.99212000
13.55569296,-78.46308000
13.55825296,-73.99212000
13.56081296,-78.46308000
13.56337296,-73.99212000
13.56593296,-73.99212000
13.56849296,-73.99212000
13.57105296,-78.46308000
13.57361296,-73.99212000
13.57617296,-78.46308000
13.57873296,-73.99212000
13.58129296,-73.99212000
13.58385296,-78.46308000
13.58641296,-78.46308000
13.58897296,-73.99212000
13.59153296,-78.46308000
13.59409296,-78.46308000
13.59665296,-78.46308000
13.59921296,-73.99212000
13.60177296,-73.99212000
13.60433296,-73.99212000
13.60689296,-78.46308000
13.60945296,-78.46308000
13.61201296,-73.99212000
13.61457296,-78.46308000
13.61713296,-78.46308000
13.61969295,-78.46308000
13.62225295,-78.46308000
13.62481295,-78.46308000
13.62737295,-73.99212000
13.62993295,-73.99212000
13.63249295,-78.46308000
13.63505295,-78.46308000
13.63761295,-78.46308000
13.64017295,-78.46308000
13.64273295,-73.99212000
13.64529295,-73.99212000
13.64785295,-78.46308000
13.65041295,-73.99212000
13.65297295,-78.46308000
13.65553295,-73.99212000
13.65809295,-78.46308000
13.66065295,-78.46308000
13.66321295,-78.46308000
13.66577295,-78.46308000
13.66833295,-78.46308000
13.67089295,-78.46308000
13.67345295,-73.99212000
13.67601295,-73.99212000
13.67857295,-78.46308000
13.68113295,-73.99212000
13.68369295,-78.46308000
13.68625295,-73.99212000
13.68881295,-78.46308000
13.69137295,-78.46308000
13.69393295,-78.46308000
13.69649295,-78.46308000
13.69905295,-73.99212000
13.70161295,-78.46308000
13.70417295,-78.46308000
13.70673295,-78.46308000
13.70929295,-78.46308000
13.71185295,-78.46308000
13.71441295,-78.46308000
13.71697295,-78.46308000
13.71953295,-78.46308000
13.72209295,-78.46308000
13.72465295,-78.46308000
13.72721295,-78.46308000
13.72977295,-78.46308000
13.73233295,-78.46308000
13.73489295,-78.46308000
13.73745295,-78.46308000
13.74001295,-78.46308000
13.74257295,-78.46308000
13.74513295,-78.46308000
13.74769295,-78.46308000
13.75025295,-78.46308000
13.75281295,-78.46308000
13.75537295,-78.46308000
13.75793295,-78.46308000
13.76049295,-78.46308000
13.76305295,-78.46308000
13.76561295,-78.46308000
13.76817295,-78.46308000
13.77073295,-78.46308000
13.77329295,-78.46308000
13.77585295,-78.46308000
13.77841295,-78.46308000
13.78097295,-78.46308000
13.78353295,-78.46308000
13.78609295,-78.46308000
13.78865295,-78.46308000
13.79121295,-78.46308000
13.79377295,-78.46308000
13.79633295,-78.46308000
13.79889295,-73.99212000
13.80145295,-78.46308000
13.80401295,-78.46308000
13.80657295,-78.46308000
13.80913295,-78.46308000
13.81169295,-73.99212000
13.81425295,-78.46308000
13.81681295,-78.46308000
13.81937295,-78.46308000
13.82193295,-78.46308000
13.82449295,-78.46308000
13.82705295,-73.99212000
13.82961295,-73.99212000
13.83217295,-78.46308000
13.83473295,-73.99212000
13.83729295,-78.46308000
13.83985295,-73.99212000
13.84241295,-78.46308000
13.84497295,-73.99212000
13.84753295,-78.46308000
13.85009295,-78.46308000
13.85265295,-73.99212000
13.85521295,-78.46308000
13.85777295,-73.99212000
13.86033295,-73.99212000
13.86289295,-73.99212000
13.86545295,-78.46308000
13.86801295,-73.99212000
13.87057295,-73.99212000
13.87313295,-78.46308000
13.87569295,-73.99212000
13.87825295,-73.99212000
13.88081295,-78.46308000
13.88337295,-73.99212000
13.88593295,-78.46308000
13.88849295,-78.46308000
13.89105295,-78.46308000
13.89361295,-78.46308000
13.89617295,-78.46308000
13.89873295,-73.99212000
13.90129295,-78.46308000
13.90385295,-78.46308000
13.90641295,-78.46308000
13.90897295,-73.99212000
13.91153295,-73.99212000
13.91409295,-73.99212000
13.91665295,-73.99212000
13.91921295,-78.46308000
13.92177295,-73.99212000
13.92433295,-78.46308000
13.92689295,-78.46308000
13.92945295,-73.99212000
13.93201295,-78.46308000
13.93457295,-73.99212000
13.93713295,-73.99212000
13.93969295,-73.99212000
13.94225295,-73.99212000
13.94481295,-73.99212000
13.94737295,-73.99212000
13.94993295,-78.46308000
13.95249295,-73.99212000
13.95505295,-73.99212000
13.95761295,-73.99212000
13.96017295,-73.99212000
13.96273295,-73.99212000
13.96529295,-73.99212000
13.96785295,-73.99212000
13.97041295,-73.99212000
13.97297295,-73.99212000
13.97553295,-73.99212000
13.97809295,-78.46308000
13.98065295,-73.99212000
13.98321295,-78.46308000
13.98577295,-73.99212000
13.98833295,-73.99212000
13.99089295,-73.99212000
13.99345295,-78.46308000
13.99601295,-73.99212000
13.99857295,-73.99212000
14.00113295,-73.99212000
14.00369295,-73.99212000
14.00625295,-73.99212000
14.00881295,-73.99212000
14.01137295,-73.99212000
14.01393295,-73.99212000
14.01649295,-73.99212000
14.01905295,-73.99212000
14.02161295,-73.99212000
14.02417295,-73.99212000
14.02673295,-78.46308000
14.02929295,-73.99212000
14.03185295,-73.99212000
14.03441295,-73.99212000
14.03697295,-73.99212000
14.03953295,-73.99212000
14.04209295,-73.99212000
14.04465295,-73.99212000
14.04721295,-73.99212000
14.04977295,-73.99212000
14.05233295,-73.99212000
14.05489295,-73.99212000
14.05745295,-73.99212000
14.06001295,-73.99212000
14.06257295,-73.99212000
14.06513295,-73.99212000
14.06769295,-73.99212000
14.07025295,-73.99212000
14.07281295,-73.99212000
14.07537295,-73.99212000
14.07793295,-73.99212000
14.08049295,-73.99212000
14.08305295,-73.99212000
14.08561295,-73.99212000
14.08817295,-73.99212000
14.09073295,-78.46308000
14.09329295,-78.46308000
14.09585295,-73.99212000
14.09841295,-73.99212000
14.10097295,-73.99212000
14.10353295,-73.99212000
14.10609295,-73.99212000
14.10865295,-73.99212000
14.11121295,-73.99212000
14.11377295,-78.46308000
14.11633295,-73.99212000
14.11889295,-73.99212000
14.12145295,-73.99212000
14.12401295,-78.46308000
14.12657295,-78.46308000
14.12913295,-78.46308000
14.13169295,-73.99212000
14.13425295,-78.46308000
14.13681295,-73.99212000
14.13937295,-78.46308000
14.14193295,-78.46308000
14.14449295,-78.46308000
14.14705295,-78.46308000
14.14961295,-78.46308000
14.15217295,-78.46308000
14.15473295,-78.46308000
14.15729295,-78.46308000
14.15985295,-78.46308000
14.16241295,-73.99212000
14.16497295,-78.46308000
14.16753295,-78.46308000
14.17009295,-73.99212000
14.17265295,-78.46308000
14.17521295,-78.46308000
14.17777295,-78.46308000
14.18033295,-78.46308000
14.18289295,-78.46308000
14.18545295,-78.46308000
14.18801295,-78.46308000
14.19057295,-78.46308000
14.19313295,-73.99212000
14.19569295,-78.46308000
14.19825295,-78.46308000
14.20081295,-78.46308000
14.20337295,-78.46308000
14.20593295,-78.46308000
14.20849295,-78.46308000
14.21105295,-78.46308000
14.21361295,-78.46308000
14.21617295,-78.46308000
14.21873295,-78.46308000
14.22129295,-78.46308000
14.22385295,-78.46308000
14.22641295,-78.46308000
14.22897295,-78.46308000
14.23153295,-78.46308000
14.23409295,-78.46308000
14.23665295,-78.46308000
14.23921295,-78.46308000
14.24177295,-78.46308000
14.24433295,-78.46308000
14.24689295,-78.46308000
14.24945295,-78.46308000
14.25201295,-78.46308000
14.25457295,-73.99212000
14.25713295,-78.46308000
14.25969295,-73.99212000
14.26225295,-78.46308000
14.26481295,-78.46308000
14.26737295,-78.46308000
14.26993295,-78.46308000
14.27249295,-78.46308000
14.27505295,-78.46308000
14.27761295,-78.46308000
14.28017295,-78.46308000
14.28273295,-78.46308000
14.28529295,-78.46308000
14.28785295,-78.46308000
14.29041295,-78.46308000
14.29297295,-73.99212000
14.29553295,-78.46308000
14.29809295,-78.46308000
14.30065295,-78.46308000
14.30321295,-73.99212000
14.30577295,-78.46308000
14.30833295,-78.46308000
14.31089295,-78.46308000
14.31345295,-78.46308000
14.31601295,-78.46308000
14.31857295,-78.46308000
14.32113295,-73.99212000
14.32369295,-73.99212000
14.32625295,-78.46308000
14.32881295,-78.46308000
14.33137295,-73.99212000
14.33393295,-78.46308000
14.33649295,-73.99212000
14.33905295,-78.46308000
14.34161295,-78.46308000
14.34417295,-78.46308000
14.34673295,-78.46308000
14.34929295,-78.46308000
14.35185295,-78.46308000
14.35441295,-78.46308000
14.35697295,-78.46308000
14.35953295,-78.46308000
14.36209295,-78.46308000
14.36465295,-78.46308000
14.36721295,-78.46308000
14.36977295,-73.99212000
14.37233295,-78.46308000
14.37489295,-78.46308000
14.37745295,-73.99212000
14.38001295,-78.46308000
14.38257295,-73.99212000
14.38513295,-78.46308000
14.38769295,-69.50591000
14.39025295,-78.46308000
14.39281295,-73.99212000
14.39537295,-73.99212000
14.39793295,-78.46308000
14.40049295,-78.46308000
14.40305295,-78.46308000
14.40561295,-73.99212000
14.40817295,-73.99212000
14.41073295,-78.46308000
14.41329295,-73.99212000
14.41585295,-73.99212000
14.41841295,-78.46308000
14.42097295,-78.46308000
14.42353295,-78.46308000
14.42609295,-78.46308000
14.42865295,-78.46308000
14.43121295,-78.46308000
14.43377295,-73.99212000
14.43633295,-78.46308000
14.43889295,-78.46308000
14.44145295,-73.99212000
14.44401295,-78.46308000
14.44657295,-73.99212000
14.44913295,-73.99212000
14.45169295,-78.46308000
14.45425295,-73.99212000
14.45681295,-78.46308000
14.45937295,-73.99212000
14.46193295,-73.99212000
14.46449295,-73.99212000
14.46705295,-73.99212000
14.46961295,-73.99212000
14.47217295,-78.46308000
14.47473295,-73.99212000
14.47729295,-73.99212000
14.47985295,-78.46308000
14.48241295,-73.99212000
14.48497295,-73.99212000
14.48753295,-78.46308000
14.49009295,-73.99212000
14.49265295,-73.99212000
14.49521295,-73.99212000
14.49777295,-73.99212000
14.50033295,-73.99212000
14.50289295,-73.99212000
14.50545295,-73.99212000
14.50801295,-69.50591000
14.51057295,-73.99212000
14.51313295,-73.99212000
14.51569295,-73.99212000
14.51825295,-73.99212000
14.52081295,-73.99212000
14.52337295,-73.99212000
14.52593295,-73.99212000
14.52849295,-73.99212000
14.53105295,-78.46308000
14.53361295,-73.99212000
14.53617295,-73.99212000
14.53873295,-73.99212000
14.54129295,-73.99212000
14.54385295,-69.50591000
14.54641295,-73.99212000
14.54897295,-73.99212000
14.55153295,-73.99212000
14.55409295,-73.99212000
14.55665295,-73.99212000
14.55921295,-73.99212000
14.56177295,-73.99212000
14.56433295,-69.50591000
14.56689295,-73.99212000
14.56945295,-73.99212000
14.57201295,-73.99212000
14.57457295,-69.50591000
14.57713295,-73.99212000
14.57969295,-73.99212000
14.58225295,-73.99212000
14.58481295,-73.99212000
14.58737295,-73.99212000
14.58993295,-73.99212000
14.59249295,-73.99212000
14.59505295,-69.50591000
14.59761295,-73.99212000
14.60017295,-73.99212000
14.60273295,-73.99212000
14.60529295,-73.99212000
14.60785295,-73.99212000
14.61041295,-73.99212000
14.61297295,-73.99212000
14.61553295,-73.99212000
14.61809295,-73.99212000
14.62065295,-69.50591000
14.62321295,-73.99212000
14.62577295,-73.99212000
14.62833295,-73.99212000
14.63089295,-73.99212000
14.63345295,-73.99212000
14.63601295,-73.99212000
14.63857295,-73.99212000
14.64113295,-69.50591000
14.64369295,-73.99212000
14.64625295,-73.99212000
14.64881295,-73.99212000
14.65137295,-69.50591000
14.65393295,-73.99212000
14.65649295,-69.50591000
14.65905295,-73.99212000
14.66161295,-73.99212000
14.66417295,-73.99212000
14.66673295,-73.99212000
14.66929295,-73.99212000
14.67185295,-73.99212000
14.67441295,-69.50591000
14.67697295,-73.99212000
14.67953295,-73.99212000
14.68209295,-73.99212000
14.68465295,-73.99212000
14.68721295,-73.99212000
14.68977295,-73.99212000
14.69233295,-78.46308000
14.69489295,-73.99212000
14.69745295,-73.99212000
14.70001295,-69.50591000
14.70257295,-73.99212000
14.70513295,-73.99212000
14.70769295,-73.99212000
14.71025295,-69.50591000
14.71281295,-73.99212000
14.71537295,-73.99212000
14.71793295,-73.99212000
14.72049295,-73.99212000
14.72305295,-73.99212000
14.72561295,-73.99212000
14.72817295,-73.99212000
14.73073295,-73.99212000
14.73329295,-78.46308000
14.73585295,-73.99212000
14.73841295,-73.99212000
14.74097295,-69.50591000
14.74353295,-73.99212000
14.74609295,-73.99212000
14.74865295,-73.99212000
14.75121295,-73.99212000
14.75377295,-73.99212000
14.75633295,-73.99212000
14.75889295,-73.99212000
14.76145295,-73.99212000
14.76401295,-73.99212000
14.76657295,-73.99212000
14.76913295,-73.99212000
14.77169295,-73.99212000
14.77425295,-73.99212000
14.77681295,-73.99212000
14.77937295,-73.99212000
14.78193295,-73.99212000
14.78449295,-73.99212000
14.78705295,-73.99212000
14.78961295,-73.99212000
14.79217295,-73.99212000
14.79473295,-73.99212000
14.79729295,-78.46308000
14.79985295,-73.99212000
14.80241295,-73.99212000
14.80497295,-78.46308000
14.80753295,-73.99212000
14.81009295,-78.46308000
14.81265295,-73.99212000
14.81521295,-73.99212000
14.81777295,-78.46308000
14.82033295,-69.50591000
14.82289295,-73.99212000
14.82545295,-78.46308000
14.82801295,-73.99212000
14.83057295,-69.50591000
14.83313295,-73.99212000
14.83569295,-73.99212000
14.83825295,-73.99212000
14.84081295,-73.99212000
14.84337295,-73.99212000
14.84593295,-73.99212000
14.84849295,-78.46308000
14.85105295,-73.99212000
14.85361295,-73.99212000
14.85617295,-78.46308000
14.85873295,-73.99212000
14.86129295,-78.46308000
14.86385295,-78.46308000
14.86641295,-78.46308000
14.86897295,-78.46308000
14.87153295,-78.46308000
14.87409295,-73.99212000
14.87665295,-78.46308000
14.87921295,-73.99212000
14.88177295,-78.46308000
14.88433295,-78.46308000
14.88689295,-78.46308000
14.88945295,-78.46308000
14.89201295,-78.46308000
14.89457295,-73.99212000
14.89713295,-73.99212000
14.89969295,-78.46308000
14.90225295,-73.99212000
14.90481295,-78.46308000
14.90737295,-78.46308000
14.90993295,-78.46308000
14.91249295,-78.46308000
14.91505295,-73.99212000
14.91761295,-78.46308000
14.92017295,-78.46308000
14.92273295,-78.46308000
14.92529295,-73.99212000
14.92785295,-78.46308000
14.93041295,-73.99212000
14.93297295,-73.99212000
14.93553295,-73.99212000
14.93809295,-78.46308000
14.94065295,-73.99212000
14.94321295,-78.46308000
14.94577295,-73.99212000
14.94833295,-73.99212000
14.95089295,-73.99212000
14.95345295,-78.46308000
14.95601295,-78.46308000
14.95857295,-78.46308000
14.96113295,-78.46308000
14.96369295,-78.46308000
14.96625295,-73.99212000
14.96881295,-78.46308000
14.97137295,-73.99212000
14.97393295,-73.99212000
14.97649295,-78.46308000
14.97905295,-73.99212000
14.98161295,-73.99212000
14.98417295,-73.99212000
14.98673295,-73.99212000
14.98929295,-78.46308000
14.99185295,-73.99212000
14.99441295,-73.99212000
14.99697295,-78.46308000
14.99953295,-78.46308000
15.00209295,-73.99212000
15.00465295,-73.99212000
15.00721295,-73.99212000
15.00977295,-78.46308000
15.01233295,-73.99212000
15.01489295,-73.99212000
15.01745295,-73.99212000
15.02001295,-73.99212000
15.02257295,-73.99212000
15.02513295,-73.99212000
15.02769295,-78.46308000
15.03025295,-73.99212000
15.03281295,-73.99212000
15.03537295,-73.99212000
15.03793295,-73.99212000
15.04049295,-73.99212000
15.04305295,-73.99212000
15.04561295,-73.99212000
15.04817295,-73.99212000
15.05073295,-69.50591000
15.05329295,-73.99212000
15.05585295,-73.99212000
15.05841295,-73.99212000
15.06097295,-73.99212000
15.06353295,-73.99212000
15.06609295,-73.99212000
15.06865295,-73.99212000
15.07121295,-69.50591000
15.07377295,-73.99212000
15.07633295,-69.50591000
15.07889295,-73.99212000
15.08145295,-69.50591000
15.08401295,-73.99212000
15.08657295,-73.99212000
15.08913295,-73.99212000
15.09169295,-73.99212000
15.09425295,-73.99212000
15.09681295,-73.99212000
15.09937295,-69.50591000
15.10193295,-73.99212000
15.10449295,-69.50591000
15.10705295,-73.99212000
15.10961295,-73.99212000
15.11217295,-73.99212000
15.11473295,-73.99212000
15.11729295,-73.99212000
15.11985295,-73.99212000
15.12241295,-69.50591000
15.12497295,-73.99212000
15.12753295,-73.99212000
15.13009295,-69.50591000
15.13265295,-73.99212000
15.13521295,-73.99212000
15.13777295,-73.99212000
15.14033295,-73.99212000
15.14289295,-69.50591000
15.14545295,-73.99212000
15.14801295,-73.99212000
15.15057295,-73.99212000
15.15313295,-73.99212000
15.15569295,-73.99212000
15.15825295,-73.99212000
15.16081295,-73.99212000
15.16337295,-73.99212000
15.16593295,-69.50591000
15.16849295,-73.99212000
15.17105295,-73.99212000
15.17361295,-73.99212000
15.17617295,-73.99212000
15.17873295,-73.99212000
15.18129295,-69.50591000
15.18385295,-73.99212000
15.18641295,-73.99212000
15.18897295,-73.99212000
15.19153295,-73.99212000
15.19409295,-73.99212000
15.19665295,-73.99212000
15.19921295,-73.99212000
15.20177295,-73.99212000
15.20433295,-73.99212000
15.20689295,-73.99212000
15.20945295,-73.99212000
15.21201295,-73.99212000
15.21457295,-69.50591000
15.21713295,-73.99212000
15.21969295,-69.50591000
15.22225295,-73.99212000
15.22481295,-69.50591000
15.22737295,-73.99212000
15.22993295,-73.99212000
15.23249295,-73.99212000
15.23505295,-73.99212000
15.23761295,-69.50591000
15.24017295,-73.99212000
15.24273295,-73.99212000
15.24529295,-73.99212000
15.24785295,-73.99212000
15.25041295,-73.99212000
15.25297295,-73.99212000
15.25553295,-73.99212000
15.25809295,-73.99212000
15.26065295,-73.99212000
15.26321295,-73.99212000
15.26577294,-73.99212000
15.26833294,-73.99212000
15.27089294,-73.99212000
15.27345294,-73.99212000
15.27601294,-73.99212000
15.27857294,-73.99212000
15.28113294,-73.99212000
15.28369294,-73.99212000
15.28625294,-78.46308000
15.28881294,-73.99212000
15.29137294,-73.99212000
15.29393294,-73.99212000
15.29649294,-73.99212000
15.29905294,-73.99212000
15.30161294,-78.46308000
15.30417294,-78.46308000
15.30673294,-78.46308000
15.30929294,-73.99212000
15.31185294,-73.99212000
15.31441294,-73.99212000
15.31697294,-73.99212000
15.31953294,-73.99212000
15.32209294,-73.99212000
15.32465294,-78.46308000
15.32721294,-73.99212000
15.32977294,-78.46308000
15.33233294,-78.46308000
15.33489294,-78.46308000
15.33745294,-73.99212000
15.34001294,-73.99212000
15.34257294,-78.46308000
15.34513294,-73.99212000
15.34769294,-73.99212000
15.35025294,-78.46308000
15.35281294,-73.99212000
15.35537294,-73.99212000
15.35793294,-73.99212000
15.36049294,-73.99212000
15.36305294,-78.46308000
15.36561294,-78.46308000
15.36817294,-78.46308000
15.37073294,-73.99212000
15.37329294,-73.99212000
15.37585294,-78.46308000
15.37841294,-73.99212000
15.38097294,-78.46308000
15.38353294,-73.99212000
15.38609294,-73.99212000
15.38865294,-78.46308000
15.39121294,-73.99212000
15.39377294,-73.99212000
15.39633294,-78.46308000
15.39889294,-78.46308000
15.40145294,-78.46308000
15.40401294,-78.46308000
15.40657294,-78.46308000
15.40913294,-78.46308000
15.41169294,-78.46308000
15.41425294,-78.46308000
15.41681294,-78.46308000
15.41937294,-73.99212000
15.42193294,-78.46308000
15.42449294,-78.46308000
15.42705294,-73.99212000
15.42961294,-78.46308000
15.43217294,-73.99212000
15.43473294,-73.99212000
15.43729294,-73.99212000
15.43985294,-73.99212000
15.44241294,-78.46308000
15.44497294,-78.46308000
15.44753294,-73.99212000
15.45009294,-73.99212000
15.45265294,-78.46308000
15.45521294,-73.99212000
15.45777294,-78.46308000
15.46033294,-73.99212000
15.46289294,-73.99212000
15.46545294,-78.46308000
15.46801294,-73.99212000
15.47057294,-73.99212000
15.47313294,-73.99212000
15.47569294,-73.99212000
15.47825294,-73.99212000
15.48081294,-73.99212000
15.48337294,-73.99212000
15.48593294,-73.99212000
15.48849294,-73.99212000
15.49105294,-73.99212000
15.49361294,-78.46308000
15.49617294,-73.99212000
15.49873294,-73.99212000
15.50129294,-73.99212000
15.50385294,-73.99212000
15.50641294,-73.99212000
15.50897294,-73.99212000
15.51153294,-73.99212000
15.51409294,-73.99212000
15.51665294,-73.99212000
15.51921294,-73.99212000
15.52177294,-73.99212000
15.52433294,-73.99212000
15.52689294,-73.99212000
15.52945294,-73.99212000
15.53201294,-78.46308000
15.53457294,-73.99212000
15.53713294,-73.99212000
15.53969294,-73.99212000
15.54225294,-73.99212000
15.54481294,-73.99212000
15.54737294,-73.99212000
15.54993294,-78.46308000
15.55249294,-73.99212000
15.55505294,-78.46308000
15.55761294,-78.46308000
15.56017294,-73.99212000
15.56273294,-73.99212000
15.56529294,-73.99212000
15.56785294,-73.99212000
15.57041294,-69.50591000
15.57297294,-73.99212000
15.57553294,-78.46308000
15.57809294,-73.99212000
15.58065294,-73.99212000
15.58321294,-73.99212000
15.58577294,-73.99212000
15.58833294,-73.99212000
15.59089294,-73.99212000
15.59345294,-73.99212000
15.59601294,-73.99212000
15.59857294,-78.46308000
15.60113294,-73.99212000
15.60369294,-78.46308000
15.60625294,-73.99212000
15.60881294,-73.99212000
15.61137294,-73.99212000
15.61393294,-73.99212000
15.61649294,-73.99212000
15.61905294,-73.99212000
15.62161294,-73.99212000
15.62417294,-78.46308000
15.62673294,-78.46308000
15.62929294,-73.99212000
15.63185294,-73.99212000
15.63441294,-73.99212000
15.63697294,-73.99212000
15.63953294,-73.99212000
15.64209294,-73.99212000
15.64465294,-73.99212000
15.64721294,-73.99212000
15.64977294,-73.99212000
15.65233294,-73.99212000
15.65489294,-78.46308000
15.65745294,-73.99212000
15.66001294,-73.99212000
15.66257294,-78.46308000
15.66513294,-78.46308000
15.66769294,-73.99212000
15.67025294,-73.99212000
15.67281294,-73.99212000
15.67537294,-73.99212000
15.67793294,-78.46308000
15.68049294,-78.46308000
15.68305294,-73.99212000
15.68561294,-78.46308000
15.68817294,-78.46308000
15.69073294,-73.99212000
15.69329294,-78.46308000
15.69585294,-78.46308000
15.69841294,-78.46308000
15.70097294,-78.46308000
15.70353294,-78.46308000
15.70609294,-78.46308000
15.70865294,-78.46308000
15.71121294,-78.46308000
15.71377294,-78.46308000
15.71633294,-78.46308000
15.71889294,-78.46308000
15.72145294,-78.46308000
15.72401294,-78.46308000
15.72657294,-78.46308000
15.72913294,-73.99212000
15.73169294,-78.46308000
15.73425294,-78.46308000
15.73681294,-78.46308000
15.73937294,-78.46308000
15.74193294,-78.46308000
15.74449294,-78.46308000
15.74705294,-78.46308000
15.74961294,-78.46308000
15.75217294,-78.46308000
15.75473294,-78.46308000
15.75729294,-78.46308000
15.75985294,-73.99212000
15.76241294,-78.46308000
15.76497294,-78.46308000
15.76753294,-73.99212000
15.77009294,-78.46308000
15.77265294,-78.46308000
15.77521294,-78.46308000
15.77777294,-78.46308000
15.78033294,-78.46308000
15.78289294,-78.46308000
15.78545294,-78.46308000
15.78801294,-78.46308000
15.79057294,-78.46308000
15.79313294,-73.99212000
15.79569294,-78.46308000
15.79825294,-78.46308000
15.80081294,-78.46308000
15.80337294,-78.46308000
15.80593294,-73.99212000
15.80849294,-78.46308000
15.81105294,-73.99212000
15.81361294,-78.46308000
15.81617294,-78.46308000
15.81873294,-78.46308000
15.82129294,-78.46308000
15.82385294,-78.46308000
15.82641294,-78.46308000
15.82897294,-78.46308000
15.83153294,-78.46308000
15.83409294,-78.46308000
15.83665294,-78.46308000
15.83921294,-78.46308000
15.84177294,-78.46308000
15.84433294,-78.46308000
15.84689294,-78.46308000
15.84945294,-78.46308000
15.85201294,-78.46308000
15.85457294,-78.46308000
15.85713294,-73.99212000
15.85969294,-73.99212000
15.86225294,-78.46308000
15.86481294,-78.46308000
15.86737294,-78.46308000
15.86993294,-78.46308000
15.87249294,-73.99212000
15.87505294,-73.99212000
15.87761294,-78.46308000
15.88017294,-78.46308000
15.88273294,-73.99212000
15.88529294,-73.99212000
15.88785294,-73.99212000
15.89041294,-78.46308000
15.89297294,-78.46308000
15.89553294,-73.99212000
15.89809294,-73.99212000
15.90065294,-73.99212000
15.90321294,-78.46308000
15.90577294,-73.99212000
15.90833294,-73.99212000
15.91089294,-73.99212000
15.91345294,-73.99212000
15.91601294,-78.46308000
15.91857294,-78.46308000
15.92113294,-78.46308000
15.92369294,-78.46308000
15.92625294,-73.99212000
15.92881294,-73.99212000
15.93137294,-73.99212000
15.93393294,-73.99212000
15.93649294,-78.46308000
15.93905294,-73.99212000
15.94161294,-73.99212000
15.94417294,-73.99212000
15.94673294,-78.46308000
15.94929294,-73.99212000
15.95185294,-78.46308000
15.95441294,-73.99212000
15.95697294,-73.99212000
15.95953294,-73.99212000
15.96209294,-73.99212000
15.96465294,-73.99212000
15.96721294,-73.99212000
15.96977294,-73.99212000
15.97233294,-78.46308000
15.97489294,-73.99212000
15.97745294,-73.99212000
15.98001294,-73.99212000
15.98257294,-73.99212000
15.98513294,-73.99212000
15.98769294,-78.46308000
15.99025294,-73.99212000
15.99281294,-73.99212000
15.99537294,-78.46308000
15.99793294,-73.99212000
16.00049294,-73.99212000
16.00305294,-73.99212000
16.00561294,-73.99212000
16.00817294,-73.99212000
16.01073294,-78.46308000
16.01329294,-73.99212000
16.01585294,-73.99212000
16.01841294,-73.99212000
16.02097294,-73.99212000
16.02353294,-73.99212000
16.02609294,-73.99212000
16.02865294,-73.99212000
16.03121294,-78.46308000
16.03377294,-73.99212000
16.03633294,-73.99212000
16.03889294,-73.99212000
16.04145294,-73.99212000
16.04401294,-73.99212000
16.04657294,-73.99212000
16.04913294,-73.99212000
16.05169294,-69.50591000
16.05425294,-73.99212000
16.05681294,-73.99212000
16.05937294,-73.99212000
16.06193294,-73.99212000
16.06449294,-73.99212000
16.06705294,-73.99212000
16.06961294,-73.99212000
16.07217294,-73.99212000
16.07473294,-73.99212000
16.07729294,-73.99212000
16.07985294,-78.46308000
16.08241294,-73.99212000
16.08497294,-73.99212000
16.08753294,-73.99212000
16.09009294,-73.99212000
16.09265294,-73.99212000
16.09521294,-73.99212000
16.09777294,-69.50591000
16.10033294,-73.99212000
16.10289294,-73.99212000
16.10545294,-73.99212000
16.10801294,-73.99212000
16.11057294,-73.99212000
16.11313294,-73.99212000
16.11569294,-73.99212000
16.11825294,-73.99212000
16.12081294,-73.99212000
16.12337294,-73.99212000
16.12593294,-73.99212000
16.12849294,-73.99212000
16.13105294,-69.50591000
16.13361294,-73.99212000
16.13617294,-73.99212000
16.13873294,-73.99212000
16.14129294,-73.99212000
16.14385294,-73.99212000
16.14641294,-73.99212000
16.14897294,-73.99212000
16.15153294,-73.99212000
16.15409294,-73.99212000
16.15665294,-73.99212000
16.15921294,-73.99212000
16.16177294,-73.99212000
16.16433294,-73.99212000
16.16689294,-73.99212000
16.16945294,-78.46308000
16.17201294,-73.99212000
16.17457294,-73.99212000
16.17713294,-73.99212000
16.17969294,-73.99212000
16.18225294,-73.99212000
16.18481294,-73.99212000
16.18737294,-73.99212000
16.18993294,-73.99212000
16.19249294,-78.46308000
16.19505294,-73.99212000
16.19761294,-73.99212000
16.20017294,-73.99212000
16.20273294,-73.99212000
16.20529294,-73.99212000
16.20785294,-73.99212000
16.21041294,-73.99212000
16.21297294,-73.99212000
16.21553294,-73.99212000
16.21809294,-73.99212000
16.22065294,-73.99212000
16.22321294,-78.46308000
16.22577294,-73.99212000
16.22833294,-73.99212000
16.23089294,-73.99212000
16.23345294,-73.99212000
16.23601294,-73.99212000
16.23857294,-73.99212000
16.24113294,-73.99212000
16.24369294,-69.50591000
16.24625294,-73.99212000
16.24881294,-69.50591000
16.25137294,-73.99212000
16.25393294,-73.99212000
16.25649294,-73.99212000
16.25905294,-73.99212000
16.26161294,-69.50591000
16.26417294,-69.50591000
16.26673294,-73.99212000
16.26929294,-69.50591000
16.27185294,-69.50591000
16.27441294,-69.50591000
16.27697294,-69.50591000
16.27953294,-73.99212000
16.28209294,-69.50591000
16.28465294,-73.99212000
16.28721294,-69.50591000
16.28977294,-69.50591000
16.29233294,-69.50591000
16.29489294,-73.99212000
16.29745294,-69.50591000
16.30001294,-69.50591000
16.30257294,-73.99212000
16.30513294,-73.99212000
16.30769294,-69.50591000
16.31025294,-73.99212000
16.31281294,-73.99212000
16.31537294,-73.99212000
16.31793294,-69.50591000
16.32049294,-73.99212000
16.32305294,-73.99212000
16.32561294,-73.99212000
16.32817294,-69.50591000
16.33073294,-73.99212000
16.33329294,-69.50591000
16.33585294,-73.99212000
16.33841294,-73.99212000
16.34097294,-73.99212000
16.34353294,-73.99212000
16.34609294,-73.99212000
16.34865294,-69.50591000
16.35121294,-78.46308000
16.35377294,-78.46308000
16.35633294,-78.46308000
16.35889294,-73.99212000
16.36145294,-78.46308000
16.36401294,-78.46308000
16.36657294,-73.99212000
16.36913294,-78.46308000
16.37169294,-78.46308000
16.37425294,-73.99212000
16.37681294,-78.46308000
16.37937294,-78.46308000
16.38193294,-78.46308000
16.38449294,-78.46308000
16.38705294,-78.46308000
16.38961294,-78.46308000
16.39217294,-78.46308000
16.39473294,-78.46308000
16.39729294,-78.46308000
16.39985294,-78.46308000
16.40241294,-78.46308000
16.40497294,-78.46308000
16.40753294,-78.46308000
16.41009294,-78.46308000
16.41265294,-78.46308000
16.41521294,-78.46308000
16.41777294,-78.46308000
16.42033294,-78.46308000
16.42289294,-78.46308000
16.42545294,-78.46308000
16.42801294,-78.46308000
16.43057294,-78.46308000
16.43313294,-78.46308000
16.43569294,-78.46308000
16.43825294,-78.46308000
16.44081294,-78.46308000
16.44337294,-78.46308000
16.44593294,-78.46308000
16.44849294,-78.46308000
16.45105294,-78.46308000
16.45361294,-78.46308000
16.45617294,-78.46308000
16.45873294,-78.46308000
16.46129294,-78.46308000
16.46385294,-78.46308000
16.46641294,-78.46308000
16.46897294,-78.46308000
16.47153294,-78.46308000
16.47409294,-78.46308000
16.47665294,-78.46308000
16.47921294,-78.46308000
16.48177294,-78.46308000
16.48433294,-78.46308000
16.48689294,-78.46308000
16.48945294,-78.46308000
16.49201294,-78.46308000
16.49457294,-78.46308000
16.49713294,-78.46308000
16.49969294,-78.46308000
16.50225294,-78.46308000
16.50481294,-78.46308000
16.50737294,-78.46308000
16.50993294,-78.46308000
16.51249294,-78.46308000
16.51505294,-78.46308000
16.51761294,-78.46308000
16.52017294,-78.46308000
16.52273294,-78.46308000
16.52529294,-78.46308000
16.52785294,-78.46308000
16.53041294,-78.46308000
16.53297294,-78.46308000
16.53553294,-73.99212000
16.53809294,-78.46308000
16.54065294,-78.46308000
16.54321294,-78.46308000
16.54577294,-78.46308000
16.54833294,-78.46308000
16.55089294,-78.46308000
16.55345294,-78.46308000
16.55601294,-78.46308000
16.55857294,-78.46308000
16.56113294,-78.46308000
16.56369294,-78.46308000
16.56625294,-78.46308000
16.56881294,-78.46308000
16.57137294,-78.46308000
16.57393294,-78.46308000
16.57649294,-78.46308000
16.57905294,-78.46308000
16.58161294,-78.46308000
16.58417294,-78.46308000
16.58673294,-78.46308000
16.58929294,-73.99212000
16.59185294,-73.99212000
16.59441294,-73.99212000
16.59697294,-78.46308000
16.59953294,-73.99212000
16.60209294,-73.99212000
16.60465294,-73.99212000
16.60721294,-73.99212000
16.60977294,-73.99212000
16.61233294,-73.99212000
16.61489294,-73.99212000
16.61745294,-73.99212000
16.62001294,-73.99212000
16.62257294,-73.99212000
16.62513294,-73.99212000
16.62769294,-73.99212000
16.63025294,-73.99212000
16.63281294,-73.99212000
16.63537294,-73.99212000
16.63793294,-73.99212000
16.64049294,-73.99212000
16.64305294,-73.99212000
16.64561294,-73.99212000
16.64817294,-73.99212000
16.65073294,-73.99212000
16.65329294,-73.99212000
16.65585294,-69.50591000
16.65841294,-73.99212000
16.66097294,-73.99212000
16.66353294,-73.99212000
16.66609294,-73.99212000
16.66865294,-69.50591000
16.67121294,-73.99212000
16.67377294,-69.50591000
16.67633294,-69.50591000
16.67889294,-69.50591000
16.68145294,-73.99212000
16.68401294,-69.50591000
16.68657294,-69.50591000
16.68913294,-69.50591000
16.69169294,-73.99212000
16.69425294,-69.50591000
16.69681294,-69.50591000
16.69937294,-73.99212000
16.70193294,-69.50591000
16.70449294,-69.50591000
16.70705294,-69.50591000
16.70961294,-73.99212000
16.71217294,-69.50591000
16.71473294,-73.99212000
16.71729294,-69.50591000
16.71985294,-69.50591000
16.72241294,-69.50591000
16.72497294,-73.99212000
16.72753294,-69.50591000
16.73009294,-73.99212000
16.73265294,-69.50591000
16.73521294,-73.99212000
16.73777294,-73.99212000
16.74033294,-73.99212000
16.74289294,-73.99212000
16.74545294,-69.50591000
16.74801294,-69.50591000
16.75057294,-73.99212000
16.75313294,-73.99212000
16.75569294,-73.99212000
16.75825294,-73.99212000
16.76081294,-69.50591000
16.76337294,-73.99212000
16.76593294,-73.99212000
16.76849294,-73.99212000
16.77105294,-73.99212000
16.77361294,-73.99212000
16.77617294,-73.99212000
16.77873294,-73.99212000
16.78129294,-73.99212000
16.78385294,-73.99212000
16.78641294,-73.99212000
16.78897294,-73.99212000
16.79153294,-73.99212000
16.79409294,-78.46308000
16.79665294,-69.50591000
16.79921294,-73.99212000
16.80177294,-73.99212000
16.80433294,-73.99212000
16.80689294,-73.99212000
16.80945294,-73.99212000
16.81201294,-73.99212000
16.81457294,-73.99212000
16.81713294,-73.99212000
16.81969294,-78.46308000
16.82225294,-73.99212000
16.82481294,-69.50591000
16.82737294,-73.99212000
16.82993294,-73.99212000
16.83249294,-78.46308000
16.83505294,-78.46308000
16.83761294,-73.99212000
16.84017294,-73.99212000
16.84273294,-73.99212000
16.84529294,-78.46308000
16.84785294,-73.99212000
16.85041294,-78.46308000
16.85297294,-73.99212000
16.85553294,-78.46308000
16.85809294,-78.46308000
16.86065294,-73.99212000
16.86321294,-78.46308000
16.86577294,-78.46308000
16.86833294,-78.46308000
16.87089294,-78.46308000
16.87345294,-73.99212000
16.87601294,-78.46308000
16.87857294,-78.46308000
16.88113294,-78.46308000
16.88369294,-73.99212000
16.88625294,-78.46308000
16.88881294,-78.46308000
16.89137294,-78.46308000
16.89393294,-78.46308000
16.89649294,-78.46308000
16.89905294,-78.46308000
16.90161294,-78.46308000
16.90417294,-78.46308000
16.90673294,-78.46308000
16.90929293,-78.46308000
16.91185293,-78.46308000
16.91441293,-78.46308000
16.91697293,-73.99212000
16.91953293,-78.46308000
16.92209293,-78.46308000
16.92465293,-78.46308000
16.92721293,-78.46308000
16.92977293,-78.46308000
16.93233293,-78.46308000
16.93489293,-78.46308000
16.93745293,-78.46308000
16.94001293,-78.46308000
16.94257293,-78.46308000
16.94513293,-78.46308000
16.94769293,-78.46308000
16.95025293,-78.46308000
16.95281293,-78.46308000
16.95537293,-78.46308000
16.95793293,-78.46308000
16.96049293,-78.46308000
16.96305293,-78.46308000
16.96561293,-78.46308000
16.96817293,-78.46308000
16.97073293,-78.46308000
16.97329293,-78.46308000
16.97585293,-78.46308000
16.97841293,-78.46308000
16.98097293,-78.46308000
16.98353293,-78.46308000
16.98609293,-78.46308000
16.98865293,-78.46308000
16.99121293,-78.46308000
16.99377293,-78.46308000
16.99633293,-78.46308000
16.99889293,-78.46308000
17.00145293,-78.46308000
17.00401293,-78.46308000
17.00657293,-78.46308000
17.00913293,-78.46308000
17.01169293,-78.46308000
17.01425293,-78.46308000
17.01681293,-78.46308000
17.01937293,-78.46308000
17.02193293,-78.46308000
17.02449293,-78.46308000
17.02705293,-78.46308000
17.02961293,-78.46308000
17.03217293,-78.46308000
17.03473293,-78.46308000
17.03729293,-78.46308000
17.03985293,-78.46308000
17.04241293,-78.46308000
17.04497293,-78.46308000
17.04753293,-78.46308000
17.05009293,-78.46308000
17.05265293,-73.99212000
17.05521293,-78.46308000
17.05777293,-78.46308000
17.06033293,-78.46308000
17.06289293,-78.46308000
17.06545293,-78.46308000
17.06801293,-78.46308000
17.07057293,-78.46308000
17.07313293,-78.46308000
17.07569293,-78.46308000
17.07825293,-78.46308000
17.08081293,-73.99212000
17.08337293,-78.46308000
17.08593293,-78.46308000
17.08849293,-78.46308000
17.09105293,-78.46308000
17.09361293,-78.46308000
17.09617293,-78.46308000
17.09873293,-78.46308000
17.10129293,-78.46308000
17.10385293,-73.99212000
17.10641293,-73.99212000
17.10897293,-78.46308000
17.11153293,-78.46308000
17.11409293,-78.46308000
17.11665293,-73.99212000
17.11921293,-78.46308000
17.12177293,-78.46308000
17.12433293,-78.46308000
17.12689293,-73.99212000
17.12945293,-78.46308000
17.13201293,-78.46308000
17.13457293,-78.46308000
17.13713293,-78.46308000
17.13969293,-78.46308000
17.14225293,-78.46308000
17.14481293,-78.46308000
17.14737293,-78.46308000
17.14993293,-78.46308000
17.15249293,-78.46308000
17.15505293,-78.46308000
17.15761293,-73.99212000
17.16017293,-78.46308000
17.16273293,-78.46308000
17.16529293,-78.46308000
17.16785293,-73.99212000
17.17041293,-78.46308000
17.17297293,-78.46308000
17.17553293,-78.46308000
17.17809293,-78.46308000
17.18065293,-78.46308000
17.18321293,-78.46308000
17.18577293,-78.46308000
17.18833293,-78.46308000
17.19089293,-78.46308000
17.19345293,-78.46308000
17.19601293,-78.46308000
17.19857293,-73.99212000
17.20113293,-73.99212000
17.20369293,-78.46308000
17.20625293,-78.46308000
17.20881293,-73.99212000
17.21137293,-78.46308000
17.21393293,-78.46308000
17.21649293,-73.99212000
17.21905293,-78.46308000
17.22161293,-78.46308000
17.22417293,-73.99212000
17.22673293,-73.99212000
17.22929293,-78.46308000
17.23185293,-73.99212000
17.23441293,-78.46308000
17.23697293,-78.46308000
17.23953293,-78.46308000
17.24209293,-73.99212000
17.24465293,-78.46308000
17.24721293,-78.46308000
17.24977293,-78.46308000
17.25233293,-78.46308000
17.25489293,-78.46308000
17.25745293,-78.46308000
17.26001293,-78.46308000
17.26257293,-78.46308000
17.26513293,-78.46308000
17.26769293,-78.46308000
17.27025293,-78.46308000
17.27281293,-78.46308000
17.27537293,-73.99212000
17.27793293,-78.46308000
17.28049293,-78.46308000
17.28305293,-78.46308000
17.28561293,-78.46308000
17.28817293,-78.46308000
17.29073293,-78.46308000
17.29329293,-78.46308000
17.29585293,-78.46308000
17.29841293,-78.46308000
17.30097293,-73.99212000
17.30353293,-73.99212000
17.30609293,-78.46308000
17.30865293,-73.99212000
17.31121293,-78.46308000
17.31377293,-73.99212000
17.31633293,-73.99212000
17.31889293,-73.99212000
17.32145293,-78.46308000
17.32401293,-78.46308000
17.32657293,-73.99212000
17.32913293,-78.46308000
17.33169293,-73.99212000
17.33425293,-78.46308000
17.33681293,-78.46308000
17.33937293,-78.46308000
17.34193293,-78.46308000
17.34449293,-78.46308000
17.34705293,-73.99212000
17.34961293,-78.46308000
17.35217293,-78.46308000
17.35473293,-78.46308000
17.35729293,-78.46308000
17.35985293,-78.46308000
17.36241293,-73.99212000
17.36497293,-78.46308000
17.36753293,-73.99212000
17.37009293,-78.46308000
17.37265293,-73.99212000
17.37521293,-78.46308000
17.37777293,-73.99212000
17.38033293,-73.99212000
17.38289293,-73.99212000
17.38545293,-73.99212000
17.38801293,-73.99212000
17.39057293,-73.99212000
17.39313293,-73.99212000
17.39569293,-73.99212000
17.39825293,-73.99212000
17.40081293,-73.99212000
17.40337293,-73.99212000
17.40593293,-78.46308000
17.40849293,-73.99212000
17.41105293,-73.99212000
17.41361293,-73.99212000
17.41617293,-69.50591000
17.41873293,-73.99212000
17.42129293,-73.99212000
17.42385293,-73.99212000
17.42641293,-73.99212000
17.42897293,-73.99212000
17.43153293,-73.99212000
17.43409293,-73.99212000
17.43665293,-73.99212000
17.43921293,-73.99212000
17.44177293,-78.46308000
17.44433293,-73.99212000
17.44689293,-69.50591000
17.44945293,-69.50591000
17.45201293,-73.99212000
17.45457293,-73.99212000
17.45713293,-69.50591000
17.45969293,-73.99212000
17.46225293,-73.99212000
17.46481293,-73.99212000
17.46737293,-73.99212000
17.46993293,-78.46308000
17.47249293,-73.99212000
17.47505293,-73.99212000
17.47761293,-73.99212000
17.48017293,-73.99212000
17.48273293,-73.99212000
17.48529293,-73.99212000
17.48785293,-69.50591000
17.49041293,-73.99212000
17.49297293,-73.99212000
17.49553293,-69.50591000
17.49809293,-73.99212000
17.50065293,-73.99212000
17.50321293,-73.99212000
17.50577293,-73.99212000
17.50833293,-73.99212000
17.51089293,-73.99212000
17.51345293,-73.99212000
17.51601293,-73.99212000
17.51857293,-73.99212000
17.52113293,-73.99212000
17.52369293,-73.99212000
17.52625293,-73.99212000
17.52881293,-73.99212000
17.53137293,-73.99212000
17.53393293,-73.99212000
17.53649293,-69.50591000
17.53905293,-73.99212000
17.54161293,-73.99212000
17.54417293,-69.50591000
17.54673293,-73.99212000
17.54929293,-73.99212000
17.55185293,-73.99212000
17.55441293,-73.99212000
17.55697293,-73.99212000
17.55953293,-73.99212000
17.56209293,-78.46308000
17.56465293,-73.99212000
17.56721293,-73.99212000
17.56977293,-73.99212000
17.57233293,-73.99212000
17.57489293,-78.46308000
17.57745293,-73.99212000
17.58001293,-78.46308000
17.58257293,-69.50591000
17.58513293,-73.99212000
17.58769293,-73.99212000
17.59025293,-69.50591000
17.59281293,-73.99212000
17.59537293,-78.46308000
17.59793293,-73.99212000
17.60049293,-73.99212000
17.60305293,-73.99212000
17.60561293,-69.50591000
17.60817293,-73.99212000
17.61073293,-73.99212000
17.61329293,-73.99212000
17.61585293,-73.99212000
17.61841293,-73.99212000
17.62097293,-69.50591000
17.62353293,-69.50591000
17.62609293,-73.99212000
17.62865293,-73.99212000
17.63121293,-73.99212000
17.63377293,-73.99212000
17.63633293,-73.99212000
17.63889293,-78.46308000
17.64145293,-73.99212000
17.64401293,-78.46308000
17.64657293,-78.46308000
17.64913293,-73.99212000
17.65169293,-73.99212000
17.65425293,-73.99212000
17.65681293,-78.46308000
17.65937293,-73.99212000
17.66193293,-78.46308000
17.66449293,-73.99212000
17.66705293,-78.46308000
17.66961293,-73.99212000
17.67217293,-73.99212000
17.67473293,-73.99212000
17.67729293,-73.99212000
17.67985293,-73.99212000
17.68241293,-73.99212000
17.68497293,-73.99212000
17.68753293,-73.99212000
17.69009293,-78.46308000
17.69265293,-73.99212000
17.69521293,-73.99212000
17.69777293,-78.46308000
17.70033293,-78.46308000
17.70289293,-78.46308000
17.70545293,-73.99212000
17.70801293,-78.46308000
17.71057293,-73.99212000
17.71313293,-78.46308000
17.71569293,-73.99212000
17.71825293,-73.99212000
17.72081293,-78.46308000
17.72337293,-73.99212000
17.72593293,-73.99212000
17.72849293,-73.99212000
17.73105293,-73.99212000
17.73361293,-73.99212000
17.73617293,-73.99212000
17.73873293,-73.99212000
17.74129293,-73.99212000
17.74385293,-78.46308000
17.74641293,-78.46308000
17.74897293,-78.46308000
17.75153293,-73.99212000
17.75409293,-73.99212000
17.75665293,-73.99212000
17.75921293,-73.99212000
17.76177293,-73.99212000
17.76433293,-78.46308000
17.76689293,-78.46308000
17.76945293,-78.46308000
17.77201293,-73.99212000
17.77457293,-73.99212000
17.77713293,-78.46308000
17.77969293,-78.46308000
17.78225293,-78.46308000
17.78481293,-78.46308000
17.78737293,-73.99212000
17.78993293,-78.46308000
17.79249293,-78.46308000
17.79505293,-73.99212000
17.79761293,-73.99212000
17.80017293,-78.46308000
17.80273293,-73.99212000
17.80529293,-73.99212000
17.80785293,-73.99212000
17.81041293,-78.46308000
17.81297293,-73.99212000
17.81553293,-78.46308000
17.81809293,-73.99212000
17.82065293,-78.46308000
17.82321293,-78.46308000
17.82577293,-73.99212000
17.82833293,-73.99212000
17.83089293,-73.99212000
17.83345293,-73.99212000
17.83601293,-78.46308000
17.83857293,-78.46308000
17.84113293,-73.99212000
17.84369293,-78.46308000
17.84625293,-78.46308000
17.84881293,-73.99212000
17.85137293,-73.99212000
17.85393293,-73.99212000
17.85649293,-78.46308000
17.85905293,-78.46308000
17.86161293,-78.46308000
17.86417293,-78.46308000
17.86673293,-78.46308000
17.86929293,-73.99212000
17.87185293,-73.99212000
17.87441293,-78.46308000
17.87697293,-78.46308000
17.87953293,-73.99212000
17.88209293,-73.99212000
17.88465293,-73.99212000
17.88721293,-73.99212000
17.88977293,-73.99212000
17.89233293,-73.99212000
17.89489293,-73.99212000
17.89745293,-78.46308000
17.90001293,-78.46308000
17.90257293,-73.99212000
17.90513293,-73.99212000
17.90769293,-78.46308000
17.91025293,-73.99212000
17.91281293,-73.99212000
17.91537293,-78.46308000
17.91793293,-73.99212000
17.92049293,-73.99212000
17.92305293,-73.99212000
17.92561293,-73.99212000
17.92817293,-73.99212000
17.93073293,-78.46308000
17.93329293,-78.46308000
17.93585293,-73.99212000
17.93841293,-73.99212000
17.94097293,-73.99212000
17.94353293,-73.99212000
17.94609293,-78.46308000
17.94865293,-73.99212000
17.95121293,-73.99212000
17.95377293,-73.99212000
17.95633293,-73.99212000
17.95889293,-73.99212000
17.96145293,-73.99212000
17.96401293,-73.99212000
17.96657293,-73.99212000
17.96913293,-73.99212000
17.97169293,-73.99212000
17.97425293,-73.99212000
17.97681293,-73.99212000
17.97937293,-73.99212000
17.98193293,-73.99212000
17.98449293,-73.99212000
17.98705293,-73.99212000
17.98961293,-73.99212000
17.99217293,-73.99212000
17.99473293,-73.99212000
17.99729293,-73.99212000
17.99985293,-69.50591000
18.00241293,-69.50591000
18.00497293,-69.50591000
18.00753293,-73.99212000
18.01009293,-73.99212000
18.01265293,-73.99212000
18.01521293,-73.99212000
18.01777293,-73.99212000
18.02033293,-73.99212000
18.02289293,-73.99212000
18.02545293,-73.99212000
18.02801293,-78.46308000
18.03057293,-73.99212000
18.03313293,-73.99212000
18.03569293,-73.99212000
18.03825293,-73.99212000
18.04081293,-73.99212000
18.04337293,-73.99212000
18.04593293,-69.50591000
18.04849293,-73.99212000
18.05105293,-73.99212000
18.05361293,-73.99212000
18.05617293,-73.99212000
18.05873293,-73.99212000
18.06129293,-73.99212000
18.06385293,-78.46308000
18.06641293,-73.99212000
18.06897293,-73.99212000
18.07153293,-73.99212000
18.07409293,-73.99212000
18.07665293,-73.99212000
18.07921293,-73.99212000
18.08177293,-73.99212000
18.08433293,-78.46308000
18.08689293,-78.46308000
18.08945293,-73.99212000
18.09201293,-73.99212000
18.09457293,-73.99212000
18.09713293,-78.46308000
18.09969293,-73.99212000
18.10225293,-73.99212000
18.10481293,-73.99212000
18.10737293,-73.99212000
18.10993293,-73.99212000
18.11249293,-73.99212000
18.11505293,-73.99212000
18.11761293,-73.99212000
18.12017293,-73.99212000
18.12273293,-78.46308000
18.12529293,-73.99212000
18.12785293,-78.46308000
18.13041293,-73.99212000
18.13297293,-73.99212000
18.13553293,-78.46308000
18.13809293,-73.99212000
18.14065293,-73.99212000
18.14321293,-73.99212000
18.14577293,-73.99212000
18.14833293,-73.99212000
18.15089293,-73.99212000
18.15345293,-78.46308000
18.15601293,-73.99212000
18.15857293,-73.99212000
18.16113293,-73.99212000
18.16369293,-73.99212000
18.16625293,-73.99212000
18.16881293,-73.99212000
18.17137293,-73.99212000
18.17393293,-78.46308000
18.17649293,-73.99212000
18.17905293,-73.99212000
18.18161293,-73.99212000
18.18417293,-78.46308000
18.18673293,-73.99212000
18.18929293,-73.99212000
18.19185293,-73.99212000
18.19441293,-73.99212000
18.19697293,-78.46308000
18.19953293,-78.46308000
18.20209293,-73.99212000
18.20465293,-73.99212000
18.20721293,-73.99212000
18.20977293,-73.99212000
18.21233293,-73.99212000
18.21489293,-73.99212000
18.21745293,-78.46308000
18.22001293,-78.46308000
18.22257293,-73.99212000
18.22513293,-73.99212000
18.22769293,-73.99212000
18.23025293,-73.99212000
18.23281293,-73.99212000
18.23537293,-78.46308000
18.23793293,-73.99212000
18.24049293,-73.99212000
18.24305293,-73.99212000
18.24561293,-73.99212000
18.24817293,-78.46308000
18.25073293,-73.99212000
18.25329293,-78.46308000
18.25585293,-73.99212000
18.25841293,-73.99212000
18.26097293,-73.99212000
18.26353293,-73.99212000
18.26609293,-73.99212000
18.26865293,-73.99212000
18.27121293,-73.99212000
18.27377293,-73.99212000
18.27633293,-73.99212000
18.27889293,-73.99212000
18.28145293,-78.46308000
18.28401293,-73.99212000
18.28657293,-78.46308000
18.28913293,-73.99212000
18.29169293,-73.99212000
18.29425293,-73.99212000
18.29681293,-73.99212000
18.29937293,-73.99212000
18.30193293,-69.50591000
18.30449293,-73.99212000
18.30705293,-73.99212000
18.30961293,-73.99212000
18.31217293,-73.99212000
18.31473293,-73.99212000
18.31729293,-73.99212000
18.31985293,-73.99212000
18.32241293,-73.99212000
18.32497293,-73.99212000
18.32753293,-73.99212000
18.33009293,-73.99212000
18.33265293,-78.46308000
18.33521293,-73.99212000
18.33777293,-78.46308000
18.34033293,-73.99212000
18.34289293,-73.99212000
18.34545293,-73.99212000
18.34801293,-78.46308000
18.35057293,-78.46308000
18.35313293,-73.99212000
18.35569293,-73.99212000
18.35825293,-73.99212000
18.36081293,-78.46308000
18.36337293,-73.99212000
18.36593293,-78.46308000
18.36849293,-73.99212000
18.37105293,-73.99212000
18.37361293,-73.99212000
18.37617293,-73.99212000
18.37873293,-73.99212000
18.38129293,-73.99212000
18.38385293,-73.99212000
18.38641293,-73.99212000
18.38897293,-73.99212000
18.39153293,-73.99212000
18.39409293,-73.99212000
18.39665293,-73.99212000
18.39921293,-73.99212000
18.40177293,-73.99212000
18.40433293,-73.99212000
18.40689293,-73.99212000
18.40945293,-73.99212000
18.41201293,-73.99212000
18.41457293,-73.99212000
18.41713293,-73.99212000
18.41969293,-73.99212000
18.42225293,-73.99212000
18.42481293,-73.99212000
18.42737293,-73.99212000
18.42993293,-73.99212000
18.43249293,-73.99212000
18.43505293,-78.46308000
18.43761293,-73.99212000
18.44017293,-73.99212000
18.44273293,-73.99212000
18.44529293,-73.99212000
18.44785293,-73.99212000
18.45041293,-73.99212000
18.45297293,-73.99212000
18.45553293,-73.99212000
18.45809293,-73.99212000
18.46065293,-73.99212000
18.46321293,-78.46308000
18.46577293,-78.46308000
18.46833293,-73.99212000
18.47089293,-73.99212000
18.47345293,-78.46308000
18.47601293,-69.50591000
18.47857293,-73.99212000
18.48113293,-78.46308000
18.48369293,-73.99212000
18.48625293,-78.46308000
18.48881293,-73.99212000
18.49137293,-73.99212000
18.49393293,-78.46308000
18.49649293,-73.99212000
18.49905293,-73.99212000
18.50161293,-73.99212000
18.50417293,-73.99212000
18.50673293,-73.99212000
18.50929293,-73.99212000
18.51185293,-73.99212000
18.51441293,-73.99212000
18.51697293,-78.46308000
18.51953293,-73.99212000
18.52209293,-73.99212000
18.52465293,-73.99212000
18.52721293,-78.46308000
18.52977293,-78.46308000
18.53233293,-78.46308000
18.53489293,-73.99212000
18.53745293,-78.46308000
18.54001293,-73.99212000
18.54257293,-73.99212000
18.54513293,-78.46308000
18.54769293,-78.46308000
18.55025293,-78.46308000
18.55281293,-78.46308000
18.55537292,-78.46308000
18.55793292,-78.46308000
18.56049292,-78.46308000
18.56305292,-78.46308000
18.56561292,-78.46308000
18.56817292,-78.46308000
18.57073292,-78.46308000
18.57329292,-78.46308000
18.57585292,-78.46308000
18.57841292,-78.46308000
18.58097292,-73.99212000
18.58353292,-78.46308000
18.58609292,-78.46308000
18.58865292,-78.46308000
18.59121292,-78.46308000
18.59377292,-73.99212000
18.59633292,-73.99212000
18.59889292,-78.46308000
18.60145292,-78.46308000
18.60401292,-78.46308000
18.60657292,-78.46308000
18.60913292,-78.46308000
18.61169292,-78.46308000
18.61425292,-78.46308000
18.61681292,-78.46308000
18.61937292,-78.46308000
18.62193292,-78.46308000
18.62449292,-78.46308000
18.62705292,-73.99212000
18.62961292,-78.46308000
18.63217292,-78.46308000
18.63473292,-78.46308000
18.63729292,-78.46308000
18.63985292,-78.46308000
18.64241292,-78.46308000
18.64497292,-78.46308000
18.64753292,-78.46308000
18.65009292,-78.46308000
18.65265292,-78.46308000
18.65521292,-78.46308000
18.65777292,-78.46308000
18.66033292,-78.46308000
18.66289292,-78.46308000
18.66545292,-78.46308000
18.66801292,-78.46308000
18.67057292,-78.46308000
18.67313292,-78.46308000
18.67569292,-78.46308000
18.67825292,-78.46308000
18.68081292,-78.46308000
