Time,Invert B
(ms),(mV)

-1.32216199,-78.46308000
-1.31960199,-78.46308000
-1.31704199,-73.99212000
-1.31448199,-78.46308000
-1.31192199,-78.46308000
-1.30936199,-78.46308000
-1.30680199,-78.46308000
-1.30424199,-78.46308000
-1.30168199,-78.46308000
-1.29912199,-78.46308000
-1.29656199,-73.99212000
-1.29400199,-78.46308000
-1.29144199,-78.46308000
-1.28888199,-78.46308000
-1.28632199,-78.46308000
-1.28376199,-73.99212000
-1.28120199,-78.46308000
-1.27864199,-78.46308000
-1.27608199,-78.46308000
-1.27352199,-78.46308000
-1.27096199,-73.99212000
-1.26840199,-78.46308000
-1.26584199,-78.46308000
-1.26328199,-78.46308000
-1.26072199,-78.46308000
-1.25816199,-78.46308000
-1.25560199,-78.46308000
-1.25304199,-78.46308000
-1.25048199,-78.46308000
-1.24792199,-78.46308000
-1.24536199,-78.46308000
-1.24280199,-78.46308000
-1.24024199,-78.46308000
-1.23768199,-78.46308000
-1.23512199,-78.46308000
-1.23256199,-78.46308000
-1.23000199,-78.46308000
-1.22744199,-78.46308000
-1.22488199,-78.46308000
-1.22232199,-78.46308000
-1.21976199,-78.46308000
-1.21720199,-78.46308000
-1.21464199,-78.46308000
-1.21208199,-78.46308000
-1.20952199,-73.99212000
-1.20696199,-78.46308000
-1.20440199,-78.46308000
-1.20184199,-73.99212000
-1.19928199,-78.46308000
-1.19672199,-78.46308000
-1.19416199,-78.46308000
-1.19160199,-78.46308000
-1.18904199,-78.46308000
-1.18648199,-78.46308000
-1.18392199,-78.46308000
-1.18136199,-78.46308000
-1.17880199,-78.46308000
-1.17624199,-73.99212000
-1.17368199,-78.46308000
-1.17112199,-78.46308000
-1.16856199,-78.46308000
-1.16600199,-78.46308000
-1.16344199,-78.46308000
-1.16088199,-73.99212000
-1.15832199,-78.46308000
-1.15576199,-78.46308000
-1.15320199,-78.46308000
-1.15064199,-78.46308000
-1.14808199,-78.46308000
-1.14552199,-78.46308000
-1.14296199,-78.46308000
-1.14040199,-78.46308000
-1.13784199,-78.46308000
-1.13528199,-73.99212000
-1.13272199,-78.46308000
-1.13016199,-78.46308000
-1.12760199,-78.46308000
-1.12504199,-78.46308000
-1.12248199,-78.46308000
-1.11992199,-78.46308000
-1.11736199,-78.46308000
-1.11480199,-78.46308000
-1.11224199,-78.46308000
-1.10968199,-78.46308000
-1.10712199,-78.46308000
-1.10456199,-78.46308000
-1.10200199,-78.46308000
-1.09944199,-78.46308000
-1.09688199,-78.46308000
-1.09432199,-78.46308000
-1.09176199,-78.46308000
-1.08920199,-78.46308000
-1.08664199,-78.46308000
-1.08408199,-78.46308000
-1.08152199,-78.46308000
-1.07896199,-78.46308000
-1.07640199,-78.46308000
-1.07384199,-78.46308000
-1.07128199,-78.46308000
-1.06872199,-78.46308000
-1.06616199,-78.46308000
-1.06360199,-78.46308000
-1.06104199,-78.46308000
-1.05848199,-78.46308000
-1.05592199,-78.46308000
-1.05336199,-78.46308000
-1.05080199,-78.46308000
-1.04824199,-78.46308000
-1.04568199,-78.46308000
-1.04312199,-78.46308000
-1.04056199,-78.46308000
-1.03800199,-78.46308000
-1.03544199,-78.46308000
-1.03288199,-78.46308000
-1.03032199,-78.46308000
-1.02776199,-78.46308000
-1.02520199,-78.46308000
-1.02264199,-78.46308000
-1.02008199,-78.46308000
-1.01752199,-78.46308000
-1.01496199,-78.46308000
-1.01240199,-78.46308000
-1.00984199,-78.46308000
-1.00728199,-78.46308000
-1.00472199,-78.46308000
-1.00216199,-78.46308000
-0.99960199,-78.46308000
-0.99704199,-78.46308000
-0.99448199,-78.46308000
-0.99192199,-78.46308000
-0.98936199,-78.46308000
-0.98680199,-78.46308000
-0.98424199,-78.46308000
-0.98168199,-78.46308000
-0.97912199,-78.46308000
-0.97656199,-78.46308000
-0.97400199,-78.46308000
-0.97144199,-78.46308000
-0.96888199,-78.46308000
-0.96632199,-78.46308000
-0.96376199,-78.46308000
-0.96120199,-78.46308000
-0.95864199,-78.46308000
-0.95608199,-78.46308000
-0.95352199,-78.46308000
-0.95096199,-78.46308000
-0.94840199,-78.46308000
-0.94584199,-78.46308000
-0.94328199,-78.46308000
-0.94072199,-78.46308000
-0.93816199,-78.46308000
-0.93560199,-78.46308000
-0.93304199,-78.46308000
-0.93048199,-78.46308000
-0.92792199,-78.46308000
-0.92536199,-78.46308000
-0.92280199,-78.46308000
-0.92024199,-78.46308000
-0.91768199,-78.46308000
-0.91512199,-78.46308000
-0.91256199,-78.46308000
-0.91000199,-78.46308000
-0.90744199,-78.46308000
-0.90488199,-78.46308000
-0.90232199,-78.46308000
-0.89976199,-78.46308000
-0.89720199,-78.46308000
-0.89464199,-78.46308000
-0.89208199,-78.46308000
-0.88952199,-78.46308000
-0.88696199,-78.46308000
-0.88440199,-78.46308000
-0.88184199,-78.46308000
-0.87928199,-78.46308000
-0.87672199,-78.46308000
-0.87416199,-78.46308000
-0.87160199,-78.46308000
-0.86904199,-78.46308000
-0.86648199,-78.46308000
-0.86392199,-78.46308000
-0.86136199,-78.46308000
-0.85880199,-78.46308000
-0.85624199,-78.46308000
-0.85368199,-78.46308000
-0.85112199,-78.46308000
-0.84856199,-78.46308000
-0.84600199,-78.46308000
-0.84344199,-78.46308000
-0.84088199,-78.46308000
-0.83832199,-78.46308000
-0.83576199,-78.46308000
-0.83320199,-78.46308000
-0.83064199,-78.46308000
-0.82808199,-78.46308000
-0.82552199,-78.46308000
-0.82296199,-78.46308000
-0.82040199,-78.46308000
-0.81784199,-78.46308000
-0.81528199,-73.99212000
-0.81272199,-87.40501000
-0.81016199,-65.03493000
-0.80760199,-87.40501000
-0.80504199,-114.23080000
-0.80248199,-136.60080000
-0.79992199,-150.01370000
-0.79736199,-158.95570000
-0.79480199,-167.89760000
-0.79224199,-176.83950000
-0.78968199,-185.78140000
-0.78712199,-194.73860000
-0.78456199,-199.20960000
-0.78200199,-203.68050000
-0.77944199,-208.15150000
-0.77688199,-212.62240000
-0.77432199,-221.56440000
-0.77176199,-221.56440000
-0.76920199,-230.50630000
-0.76664199,-230.50630000
-0.76408199,-234.97720000
-0.76152199,-234.97720000
-0.75896199,-239.44820000
-0.75640199,-239.44820000
-0.75384199,-243.91920000
-0.75128199,-248.40540000
-0.74872199,-248.40540000
-0.74616199,-248.40540000
-0.74360199,-248.40540000
-0.74104199,-252.87640000
-0.73848199,-248.40540000
-0.73592199,-248.40540000
-0.73336199,-248.40540000
-0.73080199,-248.40540000
-0.72824199,-248.40540000
-0.72568199,-248.40540000
-0.72312199,-248.40540000
-0.72056199,-248.40540000
-0.71800199,-248.40540000
-0.71544199,-248.40540000
-0.71288199,-243.91920000
-0.71032199,-243.91920000
-0.70776199,-239.44820000
-0.70520199,-239.44820000
-0.70264199,-239.44820000
-0.70008199,-234.97720000
-0.69752199,-234.97720000
-0.69496199,-230.50630000
-0.69240199,-230.50630000
-0.68984199,-230.50630000
-0.68728199,-226.03530000
-0.68472199,-221.56440000
-0.68216199,-217.09340000
-0.67960199,-217.09340000
-0.67704199,-212.62240000
-0.67448199,-212.62240000
-0.67192199,-208.15150000
-0.66936199,-203.68050000
-0.66680199,-203.68050000
-0.66424199,-199.20960000
-0.66168199,-194.73860000
-0.65912199,-190.26760000
-0.65656199,-185.78140000
-0.65400199,-185.78140000
-0.65144199,-185.78140000
-0.64888199,-176.83950000
-0.64632199,-176.83950000
-0.64376199,-176.83950000
-0.64120199,-172.36850000
-0.63864199,-167.89760000
-0.63608199,-163.42660000
-0.63352199,-163.42660000
-0.63096199,-158.95570000
-0.62840199,-158.95570000
-0.62584199,-154.48470000
-0.62328199,-150.01370000
-0.62072199,-150.01370000
-0.61816199,-145.54280000
-0.61560199,-141.07180000
-0.61304199,-141.07180000
-0.61048199,-136.60080000
-0.60792199,-132.12990000
-0.60536199,-127.64370000
-0.60280199,-123.17270000
-0.60024199,-123.17270000
-0.59768199,-123.17270000
-0.59512199,-118.70170000
-0.59256199,-114.23080000
-0.59000199,-114.23080000
-0.58744199,-109.75980000
-0.58488199,-105.28880000
-0.58232199,-105.28880000
-0.57976199,-105.28880000
-0.57720199,-100.81790000
-0.57464199,-96.34693000
-0.57208199,-96.34693000
-0.56952199,-91.87596000
-0.56696199,-91.87596000
-0.56440199,-87.40501000
-0.56184199,-87.40501000
-0.55928199,-82.93404000
-0.55672199,-82.93404000
-0.55416199,-78.46308000
-0.55160199,-78.46308000
-0.54904199,-78.46308000
-0.54648199,-69.50591000
-0.54392199,-69.50591000
-0.54136199,-69.50591000
-0.53880199,-69.50591000
-0.53624199,-60.56398000
-0.53368199,-60.56398000
-0.53112199,-60.56398000
-0.52856199,-60.56398000
-0.52600199,-56.09302000
-0.52344199,-56.09302000
-0.52088199,-51.62206000
-0.51832199,-51.62206000
-0.51576199,-51.62206000
-0.51320199,-47.15109000
-0.51064199,-47.15109000
-0.50808199,-47.15109000
-0.50552199,-42.68013000
-0.50296199,-42.68013000
-0.50040199,-42.68013000
-0.49784199,-38.20917000
-0.49528199,-38.20917000
-0.49272199,-33.73821000
-0.49016199,-33.73821000
-0.48760199,-33.73821000
-0.48504199,-33.73821000
-0.48248199,-33.73821000
-0.47992199,-33.73821000
-0.47736199,-29.26725000
-0.47480199,-29.26725000
-0.47224199,-29.26725000
-0.46968199,-24.79629000
-0.46712199,-24.79629000
-0.46456199,-24.79629000
-0.46200199,-24.79629000
-0.45944199,-24.79629000
-0.45688199,-24.79629000
-0.45432199,-24.79629000
-0.45176199,-20.32533000
-0.44920199,-20.32533000
-0.44664199,-20.32533000
-0.44408199,-20.32533000
-0.44152199,-15.85437000
-0.43896199,-15.85437000
-0.43640199,-15.85437000
-0.43384199,-15.85437000
-0.43128199,-15.85437000
-0.42872199,-15.85437000
-0.42616199,-15.85437000
-0.42360199,-15.85437000
-0.42104199,-15.85437000
-0.41848199,-15.85437000
-0.41592199,-15.85437000
-0.41336199,-15.85437000
-0.41080199,-11.38340000
-0.40824199,-15.85437000
-0.40568199,-15.85437000
-0.40312199,-15.85437000
-0.40056199,-15.85437000
-0.39800199,-15.85437000
-0.39544199,-11.38340000
-0.39288199,-15.85437000
-0.39032199,-11.38340000
-0.38776199,-15.85437000
-0.38520199,-15.85437000
-0.38264199,-11.38340000
-0.38008199,-11.38340000
-0.37752199,-11.38340000
-0.37496199,-11.38340000
-0.37240199,-11.38340000
-0.36984199,-11.38340000
-0.36728199,-11.38340000
-0.36472199,-11.38340000
-0.36216199,-11.38340000
-0.35960199,-11.38340000
-0.35704199,-11.38340000
-0.35448199,-11.38340000
-0.35192199,-15.85437000
-0.34936199,-15.85437000
-0.34680199,-15.85437000
-0.34424199,-11.38340000
-0.34168199,-15.85437000
-0.33912199,-15.85437000
-0.33656199,-15.85437000
-0.33400199,-15.85437000
-0.33144199,-15.85437000
-0.32888199,-15.85437000
-0.32632199,-15.85437000
-0.32376199,-15.85437000
-0.32120199,-15.85437000
-0.31864199,-15.85437000
-0.31608199,-15.85437000
-0.31352199,-15.85437000
-0.31096199,-15.85437000
-0.30840199,-15.85437000
-0.30584199,-15.85437000
-0.30328199,-15.85437000
-0.30072199,-15.85437000
-0.29816199,-15.85437000
-0.29560199,-15.85437000
-0.29304199,-15.85437000
-0.29048199,37.79717000
-0.28792199,131.71790000
-0.28536199,216.69670000
-0.28280199,279.30540000
-0.28024199,328.50120000
-0.27768199,359.79790000
-0.27512199,391.10990000
-0.27256199,413.46470000
-0.27000199,431.34860000
-0.26744199,449.24770000
-0.26488199,467.13150000
-0.26232199,485.01540000
-0.25976199,Infinity
-0.25720199,Infinity
-0.25464199,Infinity
-0.25208199,Infinity
-0.24952199,Infinity
-0.24696199,Infinity
-0.24440199,Infinity
-0.24184199,Infinity
-0.23928199,Infinity
-0.23672199,Infinity
-0.23416199,Infinity
-0.23160199,Infinity
-0.22904199,Infinity
-0.22648200,Infinity
-0.22392200,Infinity
-0.22136200,Infinity
-0.21880200,Infinity
-0.21624200,Infinity
-0.21368200,Infinity
-0.21112200,Infinity
-0.20856200,Infinity
-0.20600200,Infinity
-0.20344200,Infinity
-0.20088200,Infinity
-0.19832200,Infinity
-0.19576200,Infinity
-0.19320200,Infinity
-0.19064200,Infinity
-0.18808200,Infinity
-0.18552200,Infinity
-0.18296200,Infinity
-0.18040200,Infinity
-0.17784200,Infinity
-0.17528200,Infinity
-0.17272200,Infinity
-0.17016200,Infinity
-0.16760200,Infinity
-0.16504200,Infinity
-0.16248200,Infinity
-0.15992200,Infinity
-0.15736200,Infinity
-0.15480200,Infinity
-0.15224200,498.42830000
-0.14968200,489.48630000
-0.14712200,480.54440000
-0.14456200,471.60250000
-0.14200200,462.66060000
-0.13944200,453.71870000
-0.13688200,444.77670000
-0.13432200,435.81950000
-0.13176200,426.87760000
-0.12920200,413.46470000
-0.12664200,404.52280000
-0.12408200,395.58090000
-0.12152200,386.63900000
-0.11896200,377.68180000
-0.11640200,368.73990000
-0.11384200,359.79790000
-0.11128200,350.85600000
-0.10872200,341.91410000
-0.10616200,332.97220000
-0.10360200,324.01500000
-0.10104200,310.60210000
-0.09848200,301.66020000
-0.09592200,292.71830000
-0.09336200,279.30540000
-0.09080200,274.83440000
-0.08824200,261.40630000
-0.08568200,252.46440000
-0.08312200,243.52240000
-0.08056200,234.58050000
-0.07800200,225.63860000
-0.07544200,216.69670000
-0.07288200,207.73950000
-0.07032200,198.79760000
-0.06776200,189.85560000
-0.06520200,180.91370000
-0.06264200,171.97180000
-0.06008200,167.50080000
-0.05752200,154.07270000
-0.05496200,145.13080000
-0.05240200,140.65980000
-0.04984200,131.71790000
-0.04728200,122.77600000
-0.04472200,113.83400000
-0.04216200,109.36310000
-0.03960200,100.42120000
-0.03704200,91.46397000
-0.03448200,82.52204000
-0.03192200,73.58012000
-0.02936200,69.10916000
-0.02680200,60.16724000
-0.02424200,55.69627000
-0.02168200,46.75435000
-0.01912200,37.79717000
-0.01656200,33.32621000
-0.01400200,24.38429000
-0.01144200,19.91333000
-0.00888200,10.97140000
-0.00632200,6.50044200
-0.00376200,2.02948100
-0.00120200,-6.91244200
0.00135800,-11.38340000
0.00391800,-15.85437000
0.00647800,-24.79629000
0.00903800,-29.26725000
0.01159800,-33.73821000
0.01415800,-42.68013000
0.01671800,-47.15109000
0.01927800,-51.62206000
0.02183800,-60.56398000
0.02439800,-65.03493000
0.02695800,-69.50591000
0.02951800,-73.99212000
0.03207800,-78.46308000
0.03463800,-82.93404000
0.03719800,-87.40501000
0.03975800,-96.34693000
0.04231800,-96.34693000
0.04487800,-105.28880000
0.04743800,-105.28880000
0.04999800,-114.23080000
0.05255800,-114.23080000
0.05511800,-118.70170000
0.05767800,-123.17270000
0.06023800,-127.64370000
0.06279800,-132.12990000
0.06535800,-136.60080000
0.06791800,-141.07180000
0.07047800,-141.07180000
0.07303800,-145.54280000
0.07559800,-150.01370000
0.07815800,-154.48470000
0.08071800,-158.95570000
0.08327800,-158.95570000
0.08583800,-167.89760000
0.08839800,-167.89760000
0.09095800,-167.89760000
0.09351800,-176.83950000
0.09607800,-176.83950000
0.09863800,-176.83950000
0.10119800,-176.83950000
0.10375800,-185.78140000
0.10631800,-185.78140000
0.10887800,-190.26760000
0.11143800,-190.26760000
0.11399800,-194.73860000
0.11655800,-194.73860000
0.11911800,-199.20960000
0.12167800,-203.68050000
0.12423800,-203.68050000
0.12679800,-208.15150000
0.12935800,-208.15150000
0.13191800,-212.62240000
0.13447800,-212.62240000
0.13703800,-212.62240000
0.13959800,-212.62240000
0.14215800,-217.09340000
0.14471800,-221.56440000
0.14727800,-221.56440000
0.14983800,-221.56440000
0.15239800,-226.03530000
0.15495800,-226.03530000
0.15751800,-226.03530000
0.16007800,-230.50630000
0.16263800,-230.50630000
0.16519800,-230.50630000
0.16775800,-234.97720000
0.17031800,-234.97720000
0.17287800,-239.44820000
0.17543800,-234.97720000
0.17799800,-239.44820000
0.18055800,-239.44820000
0.18311800,-239.44820000
0.18567800,-239.44820000
0.18823800,-243.91920000
0.19079800,-243.91920000
0.19335800,-243.91920000
0.19591800,-243.91920000
0.19847800,-248.40540000
0.20103800,-248.40540000
0.20359800,-248.40540000
0.20615800,-248.40540000
0.20871800,-248.40540000
0.21127800,-248.40540000
0.21383800,-248.40540000
0.21639800,-248.40540000
0.21895800,-248.40540000
0.22151800,-252.87640000
0.22407800,-252.87640000
0.22663800,-252.87640000
0.22919800,-248.40540000
0.23175800,-248.40540000
0.23431800,-252.87640000
0.23687800,-252.87640000
0.23943800,-252.87640000
0.24199800,-257.34730000
0.24455800,-257.34730000
0.24711800,-257.34730000
0.24967800,-252.87640000
0.25223800,-257.34730000
0.25479800,-257.34730000
0.25735800,-257.34730000
0.25991800,-257.34730000
0.26247800,-257.34730000
0.26503800,-257.34730000
0.26759800,-257.34730000
0.27015800,-257.34730000
0.27271800,-257.34730000
0.27527800,-257.34730000
0.27783800,-257.34730000
0.28039800,-252.87640000
0.28295800,-257.34730000
0.28551800,-257.34730000
0.28807800,-257.34730000
0.29063800,-257.34730000
0.29319800,-257.34730000
0.29575800,-252.87640000
0.29831800,-257.34730000
0.30087800,-252.87640000
0.30343800,-252.87640000
0.30599800,-252.87640000
0.30855800,-257.34730000
0.31111800,-252.87640000
0.31367800,-252.87640000
0.31623800,-248.40540000
0.31879800,-252.87640000
0.32135800,-252.87640000
0.32391800,-252.87640000
0.32647800,-248.40540000
0.32903800,-248.40540000
0.33159800,-252.87640000
0.33415800,-248.40540000
0.33671800,-248.40540000
0.33927800,-248.40540000
0.34183800,-248.40540000
0.34439800,-248.40540000
0.34695800,-248.40540000
0.34951800,-248.40540000
0.35207800,-248.40540000
0.35463800,-248.40540000
0.35719800,-248.40540000
0.35975800,-248.40540000
0.36231800,-243.91920000
0.36487800,-243.91920000
0.36743800,-243.91920000
0.36999800,-243.91920000
0.37255800,-243.91920000
0.37511800,-243.91920000
0.37767800,-243.91920000
0.38023800,-239.44820000
0.38279800,-243.91920000
0.38535800,-243.91920000
0.38791800,-239.44820000
0.39047800,-239.44820000
0.39303800,-239.44820000
0.39559800,-239.44820000
0.39815800,-239.44820000
0.40071800,-239.44820000
0.40327800,-239.44820000
0.40583800,-239.44820000
0.40839800,-239.44820000
0.41095800,-234.97720000
0.41351800,-239.44820000
0.41607800,-234.97720000
0.41863800,-234.97720000
0.42119800,-234.97720000
0.42375800,-234.97720000
0.42631800,-230.50630000
0.42887800,-234.97720000
0.43143800,-230.50630000
0.43399800,-230.50630000
0.43655800,-230.50630000
0.43911800,-230.50630000
0.44167800,-230.50630000
0.44423800,-230.50630000
0.44679800,-230.50630000
0.44935800,-230.50630000
0.45191800,-230.50630000
0.45447800,-226.03530000
0.45703800,-226.03530000
0.45959800,-226.03530000
0.46215800,-226.03530000
0.46471800,-226.03530000
0.46727800,-221.56440000
0.46983800,-221.56440000
0.47239800,-221.56440000
0.47495800,-221.56440000
0.47751800,-221.56440000
0.48007800,-221.56440000
0.48263800,-221.56440000
0.48519800,-221.56440000
0.48775800,-221.56440000
0.49031800,-221.56440000
0.49287800,-221.56440000
0.49543800,-217.09340000
0.49799800,-217.09340000
0.50055800,-212.62240000
0.50311800,-212.62240000
0.50567800,-212.62240000
0.50823800,-217.09340000
0.51079800,-212.62240000
0.51335800,-212.62240000
0.51591800,-212.62240000
0.51847800,-212.62240000
0.52103800,-212.62240000
0.52359800,-208.15150000
0.52615800,-212.62240000
0.52871800,-208.15150000
0.53127800,-208.15150000
0.53383800,-208.15150000
0.53639800,-208.15150000
0.53895800,-208.15150000
0.54151800,-203.68050000
0.54407800,-203.68050000
0.54663800,-203.68050000
0.54919800,-203.68050000
0.55175800,-203.68050000
0.55431800,-203.68050000
0.55687800,-203.68050000
0.55943800,-203.68050000
0.56199800,-203.68050000
0.56455800,-203.68050000
0.56711800,-199.20960000
0.56967800,-199.20960000
0.57223800,-199.20960000
0.57479800,-199.20960000
0.57735800,-194.73860000
0.57991800,-194.73860000
0.58247800,-194.73860000
0.58503800,-194.73860000
0.58759800,-194.73860000
0.59015800,-194.73860000
0.59271800,-194.73860000
0.59527800,-194.73860000
0.59783800,-194.73860000
0.60039800,-190.26760000
0.60295800,-194.73860000
0.60551800,-190.26760000
0.60807800,-190.26760000
0.61063800,-190.26760000
0.61319800,-190.26760000
0.61575800,-190.26760000
0.61831800,-185.78140000
0.62087800,-185.78140000
0.62343800,-185.78140000
0.62599800,-185.78140000
0.62855800,-185.78140000
0.63111800,-185.78140000
0.63367800,-185.78140000
0.63623800,-185.78140000
0.63879800,-181.31050000
0.64135800,-185.78140000
0.64391800,-181.31050000
0.64647800,-181.31050000
0.64903800,-181.31050000
0.65159800,-176.83950000
0.65415800,-176.83950000
0.65671800,-181.31050000
0.65927800,-176.83950000
0.66183800,-176.83950000
0.66439800,-176.83950000
0.66695800,-176.83950000
0.66951800,-176.83950000
0.67207800,-176.83950000
0.67463800,-176.83950000
0.67719800,-176.83950000
0.67975800,-176.83950000
0.68231800,-172.36850000
0.68487800,-172.36850000
0.68743800,-172.36850000
0.68999800,-172.36850000
0.69255800,-172.36850000
0.69511800,-172.36850000
0.69767800,-167.89760000
0.70023800,-167.89760000
0.70279800,-167.89760000
0.70535800,-167.89760000
0.70791800,-167.89760000
0.71047800,-167.89760000
0.71303800,-167.89760000
0.71559800,-167.89760000
0.71815800,-167.89760000
0.72071800,-167.89760000
0.72327800,-167.89760000
0.72583800,-163.42660000
0.72839800,-163.42660000
0.73095800,-163.42660000
0.73351800,-163.42660000
0.73607800,-163.42660000
0.73863800,-158.95570000
0.74119800,-158.95570000
0.74375800,-158.95570000
0.74631800,-158.95570000
0.74887800,-158.95570000
0.75143800,-158.95570000
0.75399800,-158.95570000
0.75655800,-158.95570000
0.75911800,-158.95570000
0.76167800,-158.95570000
0.76423800,-158.95570000
0.76679800,-154.48470000
0.76935800,-154.48470000
0.77191800,-154.48470000
0.77447800,-154.48470000
0.77703800,-154.48470000
0.77959800,-154.48470000
0.78215800,-154.48470000
0.78471800,-150.01370000
0.78727800,-154.48470000
0.78983800,-150.01370000
0.79239800,-150.01370000
0.79495800,-150.01370000
0.79751800,-150.01370000
0.80007800,-150.01370000
0.80263800,-150.01370000
0.80519800,-150.01370000
0.80775800,-150.01370000
0.81031800,-150.01370000
0.81287800,-150.01370000
0.81543800,-150.01370000
0.81799800,-145.54280000
0.82055800,-150.01370000
0.82311800,-145.54280000
0.82567800,-145.54280000
0.82823800,-145.54280000
0.83079800,-141.07180000
0.83335800,-141.07180000
0.83591800,-141.07180000
0.83847800,-145.54280000
0.84103800,-141.07180000
0.84359800,-141.07180000
0.84615800,-141.07180000
0.84871800,-141.07180000
0.85127800,-141.07180000
0.85383800,-141.07180000
0.85639800,-141.07180000
0.85895800,-141.07180000
0.86151800,-141.07180000
0.86407800,-136.60080000
0.86663800,-141.07180000
0.86919800,-141.07180000
0.87175800,-136.60080000
0.87431800,-136.60080000
0.87687800,-136.60080000
0.87943800,-136.60080000
0.88199800,-136.60080000
0.88455800,-136.60080000
0.88711800,-136.60080000
0.88967800,-136.60080000
0.89223800,-132.12990000
0.89479800,-132.12990000
0.89735800,-132.12990000
0.89991800,-132.12990000
0.90247800,-132.12990000
0.90503800,-132.12990000
0.90759800,-132.12990000
0.91015800,-132.12990000
0.91271800,-132.12990000
0.91527800,-127.64370000
0.91783800,-132.12990000
0.92039800,-132.12990000
0.92295800,-127.64370000
0.92551800,-132.12990000
0.92807800,-123.17270000
0.93063800,-127.64370000
0.93319800,-123.17270000
0.93575800,-123.17270000
0.93831800,-127.64370000
0.94087800,-123.17270000
0.94343800,-123.17270000
0.94599800,-123.17270000
0.94855800,-123.17270000
0.95111800,-123.17270000
0.95367800,-123.17270000
0.95623800,-123.17270000
0.95879800,-123.17270000
0.96135800,-123.17270000
0.96391800,-123.17270000
0.96647800,-123.17270000
0.96903800,-123.17270000
0.97159800,-123.17270000
0.97415800,-123.17270000
0.97671800,-118.70170000
0.97927800,-118.70170000
0.98183800,-118.70170000
0.98439800,-118.70170000
0.98695800,-118.70170000
0.98951800,-118.70170000
0.99207800,-118.70170000
0.99463800,-118.70170000
0.99719800,-114.23080000
0.99975800,-118.70170000
1.00231800,-118.70170000
1.00487800,-114.23080000
1.00743800,-118.70170000
1.00999800,-114.23080000
1.01255800,-114.23080000
1.01511800,-114.23080000
1.01767800,-114.23080000
1.02023800,-114.23080000
1.02279800,-114.23080000
1.02535800,-114.23080000
1.02791800,-114.23080000
1.03047800,-114.23080000
1.03303800,-114.23080000
1.03559800,-114.23080000
1.03815800,-114.23080000
1.04071800,-114.23080000
1.04327800,-114.23080000
1.04583800,-114.23080000
1.04839800,-114.23080000
1.05095800,-114.23080000
1.05351800,-109.75980000
1.05607800,-114.23080000
1.05863800,-109.75980000
1.06119800,-109.75980000
1.06375800,-109.75980000
1.06631800,-109.75980000
1.06887800,-109.75980000
1.07143800,-109.75980000
1.07399800,-109.75980000
1.07655800,-105.28880000
1.07911800,-109.75980000
1.08167800,-109.75980000
1.08423800,-105.28880000
1.08679800,-105.28880000
1.08935800,-105.28880000
1.09191800,-105.28880000
1.09447800,-105.28880000
1.09703800,-105.28880000
1.09959800,-105.28880000
1.10215800,-105.28880000
1.10471800,-105.28880000
1.10727800,-105.28880000
1.10983800,-105.28880000
1.11239800,-105.28880000
1.11495800,-105.28880000
1.11751800,-105.28880000
1.12007800,-105.28880000
1.12263800,-105.28880000
1.12519800,-105.28880000
1.12775800,-105.28880000
1.13031800,-105.28880000
1.13287800,-105.28880000
1.13543800,-105.28880000
1.13799800,-105.28880000
1.14055800,-105.28880000
1.14311800,-105.28880000
1.14567800,-105.28880000
1.14823800,-105.28880000
1.15079800,-100.81790000
1.15335800,-100.81790000
1.15591800,-100.81790000
1.15847800,-100.81790000
1.16103800,-100.81790000
1.16359800,-100.81790000
1.16615800,-100.81790000
1.16871800,-100.81790000
1.17127800,-100.81790000
1.17383800,-100.81790000
1.17639800,-100.81790000
1.17895800,-100.81790000
1.18151800,-100.81790000
1.18407800,-100.81790000
1.18663800,-100.81790000
1.18919800,-100.81790000
1.19175800,-100.81790000
1.19431800,-96.34693000
1.19687800,-100.81790000
1.19943800,-96.34693000
1.20199800,-96.34693000
1.20455800,-96.34693000
1.20711800,-96.34693000
1.20967800,-96.34693000
1.21223800,-96.34693000
1.21479800,-96.34693000
1.21735800,-96.34693000
1.21991800,-96.34693000
1.22247800,-96.34693000
1.22503800,-96.34693000
1.22759800,-96.34693000
1.23015800,-96.34693000
1.23271800,-96.34693000
1.23527800,-96.34693000
1.23783800,-96.34693000
1.24039800,-96.34693000
1.24295800,-96.34693000
1.24551800,-96.34693000
1.24807800,-96.34693000
1.25063800,-96.34693000
1.25319800,-96.34693000
1.25575800,-96.34693000
1.25831800,-96.34693000
1.26087800,-96.34693000
1.26343800,-96.34693000
1.26599800,-96.34693000
1.26855800,-96.34693000
1.27111800,-96.34693000
1.27367800,-96.34693000
1.27623800,-96.34693000
1.27879800,-96.34693000
1.28135800,-91.87596000
1.28391800,-96.34693000
1.28647800,-91.87596000
1.28903800,-91.87596000
1.29159800,-96.34693000
1.29415800,-91.87596000
1.29671800,-91.87596000
1.29927800,-96.34693000
1.30183800,-91.87596000
1.30439800,-91.87596000
1.30695800,-91.87596000
1.30951800,-91.87596000
1.31207800,-91.87596000
1.31463800,-91.87596000
1.31719800,-91.87596000
1.31975800,-87.40501000
1.32231800,-91.87596000
1.32487800,-87.40501000
1.32743800,-87.40501000
1.32999800,-87.40501000
1.33255800,-91.87596000
1.33511800,-87.40501000
1.33767800,-87.40501000
1.34023800,-87.40501000
1.34279800,-91.87596000
1.34535800,-91.87596000
1.34791800,-87.40501000
1.35047800,-87.40501000
1.35303800,-87.40501000
1.35559800,-91.87596000
1.35815800,-91.87596000
1.36071800,-87.40501000
1.36327800,-87.40501000
1.36583800,-87.40501000
1.36839800,-87.40501000
1.37095800,-87.40501000
1.37351800,-87.40501000
1.37607800,-87.40501000
1.37863800,-87.40501000
1.38119800,-87.40501000
1.38375800,-87.40501000
1.38631800,-87.40501000
1.38887800,-87.40501000
1.39143800,-87.40501000
1.39399800,-87.40501000
1.39655800,-87.40501000
1.39911800,-87.40501000
1.40167800,-87.40501000
1.40423800,-87.40501000
1.40679800,-87.40501000
1.40935800,-87.40501000
1.41191800,-87.40501000
1.41447800,-87.40501000
1.41703799,-87.40501000
1.41959799,-87.40501000
1.42215799,-87.40501000
1.42471799,-87.40501000
1.42727799,-87.40501000
1.42983799,-82.93404000
1.43239799,-87.40501000
1.43495799,-87.40501000
1.43751799,-87.40501000
1.44007799,-87.40501000
1.44263799,-87.40501000
1.44519799,-87.40501000
1.44775799,-87.40501000
1.45031799,-87.40501000
1.45287799,-87.40501000
1.45543799,-87.40501000
1.45799799,-87.40501000
1.46055799,-87.40501000
1.46311799,-87.40501000
1.46567799,-87.40501000
1.46823799,-87.40501000
1.47079799,-87.40501000
1.47335799,-87.40501000
1.47591799,-82.93404000
1.47847799,-82.93404000
1.48103799,-87.40501000
1.48359799,-82.93404000
1.48615799,-82.93404000
1.48871799,-82.93404000
1.49127799,-87.40501000
1.49383799,-82.93404000
1.49639799,-82.93404000
1.49895799,-82.93404000
1.50151799,-82.93404000
1.50407799,-82.93404000
1.50663799,-82.93404000
1.50919799,-82.93404000
1.51175799,-82.93404000
1.51431799,-82.93404000
1.51687799,-82.93404000
1.51943799,-82.93404000
1.52199799,-82.93404000
1.52455799,-82.93404000
1.52711799,-82.93404000
1.52967799,-82.93404000
1.53223799,-82.93404000
1.53479799,-82.93404000
1.53735799,-78.46308000
1.53991799,-82.93404000
1.54247799,-82.93404000
1.54503799,-82.93404000
1.54759799,-82.93404000
1.55015799,-82.93404000
1.55271799,-82.93404000
1.55527799,-82.93404000
1.55783799,-82.93404000
1.56039799,-82.93404000
1.56295799,-82.93404000
1.56551799,-82.93404000
1.56807799,-82.93404000
1.57063799,-82.93404000
1.57319799,-82.93404000
1.57575799,-82.93404000
1.57831799,-82.93404000
1.58087799,-82.93404000
1.58343799,-82.93404000
1.58599799,-78.46308000
1.58855799,-78.46308000
1.59111799,-82.93404000
1.59367799,-78.46308000
1.59623799,-78.46308000
1.59879799,-82.93404000
1.60135799,-82.93404000
1.60391799,-78.46308000
1.60647799,-82.93404000
1.60903799,-82.93404000
1.61159799,-78.46308000
1.61415799,-78.46308000
1.61671799,-78.46308000
1.61927799,-78.46308000
1.62183799,-82.93404000
1.62439799,-78.46308000
1.62695799,-78.46308000
1.62951799,-78.46308000
1.63207799,-82.93404000
1.63463799,-78.46308000
1.63719799,-78.46308000
1.63975799,-78.46308000
1.64231799,-78.46308000
1.64487799,-78.46308000
1.64743799,-78.46308000
1.64999799,-78.46308000
1.65255799,-78.46308000
1.65511799,-78.46308000
1.65767799,-78.46308000
1.66023799,-78.46308000
1.66279799,-78.46308000
1.66535799,-78.46308000
1.66791799,-78.46308000
1.67047799,-78.46308000
1.67303799,-78.46308000
1.67559799,-78.46308000
1.67815799,-78.46308000
1.68071799,-78.46308000
1.68327799,-78.46308000
1.68583799,-78.46308000
1.68839799,-78.46308000
1.69095799,-78.46308000
1.69351799,-78.46308000
1.69607799,-78.46308000
1.69863799,-78.46308000
1.70119799,-78.46308000
1.70375799,-78.46308000
1.70631799,-78.46308000
1.70887799,-78.46308000
1.71143799,-78.46308000
1.71399799,-78.46308000
1.71655799,-78.46308000
1.71911799,-78.46308000
1.72167799,-78.46308000
1.72423799,-78.46308000
1.72679799,-78.46308000
1.72935799,-78.46308000
1.73191799,-78.46308000
1.73447799,-78.46308000
1.73703799,-78.46308000
1.73959799,-78.46308000
1.74215799,-78.46308000
1.74471799,-78.46308000
1.74727799,-78.46308000
1.74983799,-78.46308000
1.75239799,-78.46308000
1.75495799,-78.46308000
1.75751799,-78.46308000
1.76007799,-78.46308000
1.76263799,-78.46308000
1.76519799,-78.46308000
1.76775799,-78.46308000
1.77031799,-78.46308000
1.77287799,-78.46308000
1.77543799,-78.46308000
1.77799799,-78.46308000
1.78055799,-78.46308000
1.78311799,-73.99212000
1.78567799,-78.46308000
1.78823799,-78.46308000
1.79079799,-73.99212000
1.79335799,-78.46308000
1.79591799,-73.99212000
1.79847799,-78.46308000
1.80103799,-73.99212000
1.80359799,-78.46308000
1.80615799,-78.46308000
1.80871799,-73.99212000
1.81127799,-78.46308000
1.81383799,-73.99212000
1.81639799,-78.46308000
1.81895799,-73.99212000
1.82151799,-73.99212000
1.82407799,-73.99212000
1.82663799,-73.99212000
1.82919799,-73.99212000
1.83175799,-73.99212000
1.83431799,-73.99212000
1.83687799,-73.99212000
1.83943799,-73.99212000
1.84199799,-73.99212000
1.84455799,-73.99212000
1.84711799,-73.99212000
1.84967799,-78.46308000
1.85223799,-78.46308000
1.85479799,-73.99212000
1.85735799,-73.99212000
1.85991799,-73.99212000
1.86247799,-73.99212000
1.86503799,-73.99212000
1.86759799,-73.99212000
1.87015799,-73.99212000
1.87271799,-73.99212000
1.87527799,-73.99212000
1.87783799,-69.50591000
1.88039799,-73.99212000
1.88295799,-73.99212000
1.88551799,-73.99212000
1.88807799,-73.99212000
1.89063799,-73.99212000
1.89319799,-73.99212000
1.89575799,-73.99212000
1.89831799,-73.99212000
1.90087799,-73.99212000
1.90343799,-69.50591000
1.90599799,-73.99212000
1.90855799,-73.99212000
1.91111799,-73.99212000
1.91367799,-73.99212000
1.91623799,-69.50591000
1.91879799,-69.50591000
1.92135799,-73.99212000
1.92391799,-73.99212000
1.92647799,-73.99212000
1.92903799,-73.99212000
1.93159799,-73.99212000
1.93415799,-73.99212000
1.93671799,-73.99212000
1.93927799,-73.99212000
1.94183799,-73.99212000
1.94439799,-69.50591000
1.94695799,-69.50591000
1.94951799,-69.50591000
1.95207799,-69.50591000
1.95463799,-69.50591000
1.95719799,-73.99212000
1.95975799,-69.50591000
1.96231799,-69.50591000
1.96487799,-73.99212000
1.96743799,-73.99212000
1.96999799,-69.50591000
1.97255799,-69.50591000
1.97511799,-69.50591000
1.97767799,-69.50591000
1.98023799,-69.50591000
1.98279799,-69.50591000
1.98535799,-69.50591000
1.98791799,-69.50591000
1.99047799,-69.50591000
1.99303799,-69.50591000
1.99559799,-69.50591000
1.99815799,-69.50591000
2.00071799,-69.50591000
2.00327799,-69.50591000
2.00583799,-69.50591000
2.00839799,-69.50591000
2.01095799,-69.50591000
2.01351799,-69.50591000
2.01607799,-69.50591000
2.01863799,-69.50591000
2.02119799,-69.50591000
2.02375799,-69.50591000
2.02631799,-69.50591000
2.02887799,-69.50591000
2.03143799,-69.50591000
2.03399799,-69.50591000
2.03655799,-69.50591000
2.03911799,-69.50591000
2.04167799,-69.50591000
2.04423799,-69.50591000
2.04679799,-69.50591000
2.04935799,-69.50591000
2.05191799,-69.50591000
2.05447799,-69.50591000
2.05703799,-69.50591000
2.05959799,-69.50591000
2.06215799,-69.50591000
2.06471799,-69.50591000
2.06727799,-69.50591000
2.06983799,-69.50591000
2.07239799,-69.50591000
2.07495799,-69.50591000
2.07751799,-69.50591000
2.08007799,-69.50591000
2.08263799,-69.50591000
2.08519799,-69.50591000
2.08775799,-69.50591000
2.09031799,-69.50591000
2.09287799,-69.50591000
2.09543799,-69.50591000
2.09799799,-69.50591000
2.10055799,-69.50591000
2.10311799,-69.50591000
2.10567799,-69.50591000
2.10823799,-69.50591000
2.11079799,-69.50591000
2.11335799,-69.50591000
2.11591799,-69.50591000
2.11847799,-69.50591000
2.12103799,-73.99212000
2.12359799,-69.50591000
2.12615799,-69.50591000
2.12871799,-69.50591000
2.13127799,-69.50591000
2.13383799,-69.50591000
2.13639799,-73.99212000
2.13895799,-69.50591000
2.14151799,-69.50591000
2.14407799,-69.50591000
2.14663799,-69.50591000
2.14919799,-69.50591000
2.15175799,-73.99212000
2.15431799,-69.50591000
2.15687799,-69.50591000
2.15943799,-73.99212000
2.16199799,-73.99212000
2.16455799,-78.46308000
2.16711799,-73.99212000
2.16967799,-73.99212000
2.17223799,-73.99212000
2.17479799,-73.99212000
2.17735799,-78.46308000
2.17991799,-73.99212000
2.18247799,-78.46308000
2.18503799,-78.46308000
2.18759799,-78.46308000
2.19015799,-78.46308000
2.19271799,-73.99212000
2.19527799,-78.46308000
2.19783799,-78.46308000
2.20039799,-78.46308000
2.20295799,-78.46308000
2.20551799,-78.46308000
2.20807799,-78.46308000
2.21063799,-78.46308000
2.21319799,-78.46308000
2.21575799,-78.46308000
2.21831799,-82.93404000
2.22087799,-82.93404000
2.22343799,-82.93404000
2.22599799,-82.93404000
2.22855799,-82.93404000
2.23111799,-82.93404000
2.23367799,-82.93404000
2.23623799,-82.93404000
2.23879799,-87.40501000
2.24135799,-82.93404000
2.24391799,-87.40501000
2.24647799,-87.40501000
2.24903799,-87.40501000
2.25159799,-87.40501000
2.25415799,-87.40501000
2.25671799,-87.40501000
2.25927799,-87.40501000
2.26183799,-87.40501000
2.26439799,-87.40501000
2.26695799,-91.87596000
2.26951799,-91.87596000
2.27207799,-91.87596000
2.27463799,-91.87596000
2.27719799,-91.87596000
2.27975799,-91.87596000
2.28231799,-91.87596000
2.28487799,-91.87596000
2.28743799,-96.34693000
2.28999799,-96.34693000
2.29255799,-96.34693000
2.29511799,-96.34693000
2.29767799,-96.34693000
2.30023799,-96.34693000
2.30279799,-96.34693000
2.30535799,-96.34693000
2.30791799,-96.34693000
2.31047799,-100.81790000
2.31303799,-100.81790000
2.31559799,-100.81790000
2.31815799,-100.81790000
2.32071799,-100.81790000
2.32327799,-105.28880000
2.32583799,-100.81790000
2.32839799,-105.28880000
2.33095799,-105.28880000
2.33351799,-105.28880000
2.33607799,-105.28880000
2.33863799,-105.28880000
2.34119799,-105.28880000
2.34375799,-105.28880000
2.34631799,-105.28880000
2.34887799,-105.28880000
2.35143799,-105.28880000
2.35399799,-109.75980000
2.35655799,-109.75980000
2.35911799,-109.75980000
2.36167799,-109.75980000
2.36423799,-109.75980000
2.36679799,-109.75980000
2.36935799,-114.23080000
2.37191799,-114.23080000
2.37447799,-114.23080000
2.37703799,-114.23080000
2.37959799,-114.23080000
2.38215799,-114.23080000
2.38471799,-114.23080000
2.38727799,-114.23080000
2.38983799,-114.23080000
2.39239799,-114.23080000
2.39495799,-114.23080000
2.39751799,-114.23080000
2.40007799,-114.23080000
2.40263799,-114.23080000
2.40519799,-114.23080000
2.40775799,-114.23080000
2.41031799,-118.70170000
2.41287799,-114.23080000
2.41543799,-118.70170000
2.41799799,-118.70170000
2.42055799,-114.23080000
2.42311799,-118.70170000
2.42567799,-118.70170000
2.42823799,-118.70170000
2.43079799,-118.70170000
2.43335799,-118.70170000
2.43591799,-118.70170000
2.43847799,-118.70170000
2.44103799,-118.70170000
2.44359799,-118.70170000
2.44615799,-118.70170000
2.44871799,-118.70170000
2.45127799,-118.70170000
2.45383799,-118.70170000
2.45639799,-118.70170000
2.45895799,-118.70170000
2.46151799,-118.70170000
2.46407799,-118.70170000
2.46663799,-118.70170000
2.46919799,-118.70170000
2.47175799,-118.70170000
2.47431799,-123.17270000
2.47687799,-118.70170000
2.47943799,-118.70170000
2.48199799,-118.70170000
2.48455799,-118.70170000
2.48711799,-118.70170000
2.48967799,-118.70170000
2.49223799,-118.70170000
2.49479799,-118.70170000
2.49735799,-118.70170000
2.49991799,-118.70170000
2.50247799,-118.70170000
2.50503799,-118.70170000
2.50759799,-118.70170000
2.51015799,-118.70170000
2.51271799,-118.70170000
2.51527799,-118.70170000
2.51783799,-118.70170000
2.52039799,-118.70170000
2.52295799,-118.70170000
2.52551799,-118.70170000
2.52807799,-118.70170000
2.53063799,-118.70170000
2.53319799,-114.23080000
2.53575799,-118.70170000
2.53831799,-118.70170000
2.54087799,-118.70170000
2.54343799,-118.70170000
2.54599799,-118.70170000
2.54855799,-118.70170000
2.55111799,-114.23080000
2.55367799,-114.23080000
2.55623799,-114.23080000
2.55879799,-114.23080000
2.56135799,-114.23080000
2.56391799,-118.70170000
2.56647799,-114.23080000
2.56903799,-118.70170000
2.57159799,-114.23080000
2.57415799,-114.23080000
2.57671799,-114.23080000
2.57927799,-114.23080000
2.58183799,-114.23080000
2.58439799,-114.23080000
2.58695799,-114.23080000
2.58951799,-114.23080000
2.59207799,-114.23080000
2.59463799,-114.23080000
2.59719799,-114.23080000
2.59975799,-114.23080000
2.60231799,-105.28880000
2.60487799,-109.75980000
2.60743799,-114.23080000
2.60999799,-114.23080000
2.61255799,-114.23080000
2.61511799,-114.23080000
2.61767799,-109.75980000
2.62023799,-109.75980000
2.62279799,-109.75980000
2.62535799,-109.75980000
2.62791799,-105.28880000
2.63047799,-109.75980000
2.63303799,-109.75980000
2.63559799,-109.75980000
2.63815799,-109.75980000
2.64071799,-105.28880000
2.64327799,-105.28880000
2.64583799,-105.28880000
2.64839799,-105.28880000
2.65095799,-105.28880000
2.65351799,-105.28880000
2.65607799,-105.28880000
2.65863799,-105.28880000
2.66119799,-105.28880000
2.66375799,-105.28880000
2.66631799,-105.28880000
2.66887799,-105.28880000
2.67143799,-105.28880000
2.67399799,-105.28880000
2.67655799,-105.28880000
2.67911799,-105.28880000
2.68167799,-100.81790000
2.68423799,-100.81790000
2.68679799,-100.81790000
2.68935799,-100.81790000
2.69191799,-100.81790000
2.69447799,-100.81790000
2.69703799,-96.34693000
2.69959799,-96.34693000
2.70215799,-96.34693000
2.70471799,-96.34693000
2.70727799,-96.34693000
2.70983799,-96.34693000
2.71239799,-96.34693000
2.71495799,-96.34693000
2.71751799,-96.34693000
2.72007799,-96.34693000
2.72263799,-91.87596000
2.72519799,-91.87596000
2.72775799,-87.40501000
2.73031799,-87.40501000
2.73287799,-87.40501000
2.73543799,-87.40501000
2.73799799,-87.40501000
2.74055799,-87.40501000
2.74311799,-87.40501000
2.74567799,-87.40501000
2.74823799,-87.40501000
2.75079799,-87.40501000
2.75335799,-82.93404000
2.75591799,-82.93404000
2.75847799,-78.46308000
2.76103799,-82.93404000
2.76359799,-78.46308000
2.76615799,-78.46308000
2.76871799,-78.46308000
2.77127799,-78.46308000
2.77383799,-78.46308000
2.77639799,-78.46308000
2.77895799,-73.99212000
2.78151799,-73.99212000
2.78407799,-73.99212000
2.78663799,-69.50591000
2.78919799,-69.50591000
2.79175799,-69.50591000
2.79431799,-69.50591000
2.79687799,-69.50591000
2.79943799,-69.50591000
2.80199799,-65.03493000
2.80455799,-65.03493000
2.80711799,-65.03493000
2.80967799,-60.56398000
2.81223799,-60.56398000
2.81479799,-60.56398000
2.81735799,-60.56398000
2.81991799,-60.56398000
2.82247799,-60.56398000
2.82503799,-56.09302000
2.82759799,-56.09302000
2.83015799,-56.09302000
2.83271799,-51.62206000
2.83527799,-51.62206000
2.83783799,-51.62206000
2.84039799,-51.62206000
2.84295799,-51.62206000
2.84551799,-51.62206000
2.84807799,-51.62206000
2.85063799,-51.62206000
2.85319799,-51.62206000
2.85575799,-47.15109000
2.85831799,-47.15109000
2.86087799,-47.15109000
2.86343799,-42.68013000
2.86599799,-42.68013000
2.86855799,-42.68013000
2.87111799,-42.68013000
2.87367799,-42.68013000
2.87623799,-42.68013000
2.87879799,-42.68013000
2.88135799,-38.20917000
2.88391799,-42.68013000
2.88647799,-38.20917000
2.88903799,-38.20917000
2.89159799,-38.20917000
2.89415799,-33.73821000
2.89671799,-33.73821000
2.89927799,-33.73821000
2.90183799,-33.73821000
2.90439799,-33.73821000
2.90695799,-33.73821000
2.90951799,-33.73821000
2.91207799,-33.73821000
2.91463799,-33.73821000
2.91719799,-29.26725000
2.91975799,-33.73821000
2.92231799,-29.26725000
2.92487799,-29.26725000
2.92743799,-29.26725000
2.92999799,-29.26725000
2.93255799,-29.26725000
2.93511799,-29.26725000
2.93767799,-29.26725000
2.94023799,-29.26725000
2.94279799,-29.26725000
2.94535799,-29.26725000
2.94791799,-29.26725000
2.95047799,-29.26725000
2.95303799,-24.79629000
2.95559799,-29.26725000
2.95815799,-24.79629000
2.96071799,-24.79629000
2.96327799,-24.79629000
2.96583799,-24.79629000
2.96839799,-24.79629000
2.97095799,-24.79629000
2.97351799,-24.79629000
2.97607799,-24.79629000
2.97863799,-24.79629000
2.98119799,-24.79629000
2.98375799,-24.79629000
2.98631799,-24.79629000
2.98887799,-24.79629000
2.99143799,-24.79629000
2.99399799,-24.79629000
2.99655799,-24.79629000
2.99911799,-24.79629000
3.00167799,-24.79629000
3.00423799,-24.79629000
3.00679799,-20.32533000
3.00935799,-20.32533000
3.01191799,-20.32533000
3.01447799,-20.32533000
3.01703799,-24.79629000
3.01959799,-24.79629000
3.02215799,-20.32533000
3.02471799,-24.79629000
3.02727799,-20.32533000
3.02983799,-24.79629000
3.03239799,-20.32533000
3.03495799,-20.32533000
3.03751799,-20.32533000
3.04007799,-24.79629000
3.04263799,-20.32533000
3.04519799,-20.32533000
3.04775799,-20.32533000
3.05031799,-20.32533000
3.05287799,-20.32533000
3.05543799,-20.32533000
3.05799799,-24.79629000
3.06055799,-24.79629000
3.06311798,-20.32533000
3.06567798,-20.32533000
3.06823798,-20.32533000
3.07079798,-24.79629000
3.07335798,-20.32533000
3.07591798,-24.79629000
3.07847798,-20.32533000
3.08103798,-20.32533000
3.08359798,-24.79629000
3.08615798,-24.79629000
3.08871798,-24.79629000
3.09127798,-24.79629000
3.09383798,-20.32533000
3.09639798,-24.79629000
3.09895798,-20.32533000
3.10151798,-24.79629000
3.10407798,-24.79629000
3.10663798,-24.79629000
3.10919798,-24.79629000
3.11175798,-20.32533000
3.11431798,-24.79629000
3.11687798,-24.79629000
3.11943798,-24.79629000
3.12199798,-24.79629000
3.12455798,-24.79629000
3.12711798,-24.79629000
3.12967798,-24.79629000
3.13223798,-24.79629000
3.13479798,-24.79629000
3.13735798,-24.79629000
3.13991798,-24.79629000
3.14247798,-24.79629000
3.14503798,-24.79629000
3.14759798,-24.79629000
3.15015798,-24.79629000
3.15271798,-24.79629000
3.15527798,-24.79629000
3.15783798,-24.79629000
3.16039798,-24.79629000
3.16295798,-24.79629000
3.16551798,-24.79629000
3.16807798,-29.26725000
3.17063798,-24.79629000
3.17319798,-24.79629000
3.17575798,-29.26725000
3.17831798,-29.26725000
3.18087798,-29.26725000
3.18343798,-29.26725000
3.18599798,-29.26725000
3.18855798,-29.26725000
3.19111798,-29.26725000
3.19367798,-29.26725000
3.19623798,-29.26725000
3.19879798,-29.26725000
3.20135798,-29.26725000
3.20391798,-29.26725000
3.20647798,-33.73821000
3.20903798,-33.73821000
3.21159798,-33.73821000
3.21415798,-33.73821000
3.21671798,-33.73821000
3.21927798,-33.73821000
3.22183798,-33.73821000
3.22439798,-33.73821000
3.22695798,-33.73821000
3.22951798,-33.73821000
3.23207798,-33.73821000
3.23463798,-33.73821000
3.23719798,-33.73821000
3.23975798,-33.73821000
3.24231798,-33.73821000
3.24487798,-33.73821000
3.24743798,-33.73821000
3.24999798,-33.73821000
3.25255798,-33.73821000
3.25511798,-38.20917000
3.25767798,-33.73821000
3.26023798,-38.20917000
3.26279798,-38.20917000
3.26535798,-38.20917000
3.26791798,-38.20917000
3.27047798,-42.68013000
3.27303798,-38.20917000
3.27559798,-38.20917000
3.27815798,-42.68013000
3.28071798,-42.68013000
3.28327798,-42.68013000
3.28583798,-42.68013000
3.28839798,-42.68013000
3.29095798,-42.68013000
3.29351798,-42.68013000
3.29607798,-42.68013000
3.29863798,-42.68013000
3.30119798,-42.68013000
3.30375798,-42.68013000
3.30631798,-42.68013000
3.30887798,-47.15109000
3.31143798,-42.68013000
3.31399798,-47.15109000
3.31655798,-47.15109000
3.31911798,-42.68013000
3.32167798,-42.68013000
3.32423798,-47.15109000
3.32679798,-47.15109000
3.32935798,-47.15109000
3.33191798,-47.15109000
3.33447798,-51.62206000
3.33703798,-51.62206000
3.33959798,-51.62206000
3.34215798,-51.62206000
3.34471798,-51.62206000
3.34727798,-51.62206000
3.34983798,-51.62206000
3.35239798,-51.62206000
3.35495798,-51.62206000
3.35751798,-51.62206000
3.36007798,-51.62206000
3.36263798,-51.62206000
3.36519798,-51.62206000
3.36775798,-51.62206000
3.37031798,-51.62206000
3.37287798,-51.62206000
3.37543798,-51.62206000
3.37799798,-51.62206000
3.38055798,-51.62206000
3.38311798,-51.62206000
3.38567798,-51.62206000
3.38823798,-51.62206000
3.39079798,-51.62206000
3.39335798,-56.09302000
3.39591798,-51.62206000
3.39847798,-56.09302000
3.40103798,-56.09302000
3.40359798,-56.09302000
3.40615798,-56.09302000
3.40871798,-56.09302000
3.41127798,-60.56398000
3.41383798,-60.56398000
3.41639798,-60.56398000
3.41895798,-60.56398000
3.42151798,-60.56398000
3.42407798,-60.56398000
3.42663798,-60.56398000
3.42919798,-60.56398000
3.43175798,-60.56398000
3.43431798,-60.56398000
3.43687798,-60.56398000
3.43943798,-60.56398000
3.44199798,-60.56398000
3.44455798,-65.03493000
3.44711798,-60.56398000
3.44967798,-60.56398000
3.45223798,-60.56398000
3.45479798,-65.03493000
3.45735798,-65.03493000
3.45991798,-65.03493000
3.46247798,-65.03493000
3.46503798,-65.03493000
3.46759798,-65.03493000
3.47015798,-65.03493000
3.47271798,-65.03493000
3.47527798,-65.03493000
3.47783798,-69.50591000
3.48039798,-69.50591000
3.48295798,-69.50591000
3.48551798,-69.50591000
3.48807798,-65.03493000
3.49063798,-69.50591000
3.49319798,-65.03493000
3.49575798,-69.50591000
3.49831798,-69.50591000
3.50087798,-69.50591000
3.50343798,-69.50591000
3.50599798,-69.50591000
3.50855798,-69.50591000
3.51111798,-69.50591000
3.51367798,-69.50591000
3.51623798,-69.50591000
3.51879798,-69.50591000
3.52135798,-69.50591000
3.52391798,-69.50591000
3.52647798,-69.50591000
3.52903798,-69.50591000
3.53159798,-69.50591000
3.53415798,-69.50591000
3.53671798,-69.50591000
3.53927798,-69.50591000
3.54183798,-69.50591000
3.54439798,-69.50591000
3.54695798,-69.50591000
3.54951798,-69.50591000
3.55207798,-69.50591000
3.55463798,-69.50591000
3.55719798,-69.50591000
3.55975798,-69.50591000
3.56231798,-69.50591000
3.56487798,-73.99212000
3.56743798,-69.50591000
3.56999798,-73.99212000
3.57255798,-73.99212000
3.57511798,-69.50591000
3.57767798,-73.99212000
3.58023798,-73.99212000
3.58279798,-69.50591000
3.58535798,-73.99212000
3.58791798,-73.99212000
3.59047798,-73.99212000
3.59303798,-73.99212000
3.59559798,-73.99212000
3.59815798,-73.99212000
3.60071798,-73.99212000
3.60327798,-73.99212000
3.60583798,-73.99212000
3.60839798,-73.99212000
3.61095798,-73.99212000
3.61351798,-73.99212000
3.61607798,-73.99212000
3.61863798,-69.50591000
3.62119798,-73.99212000
3.62375798,-73.99212000
3.62631798,-78.46308000
3.62887798,-73.99212000
3.63143798,-78.46308000
3.63399798,-73.99212000
3.63655798,-78.46308000
3.63911798,-73.99212000
3.64167798,-73.99212000
3.64423798,-73.99212000
3.64679798,-78.46308000
3.64935798,-73.99212000
3.65191798,-73.99212000
3.65447798,-73.99212000
3.65703798,-78.46308000
3.65959798,-78.46308000
3.66215798,-78.46308000
3.66471798,-78.46308000
3.66727798,-78.46308000
3.66983798,-78.46308000
3.67239798,-78.46308000
3.67495798,-78.46308000
3.67751798,-78.46308000
3.68007798,-78.46308000
3.68263798,-78.46308000
3.68519798,-78.46308000
3.68775798,-78.46308000
3.69031798,-78.46308000
3.69287798,-78.46308000
3.69543798,-78.46308000
3.69799798,-78.46308000
3.70055798,-78.46308000
3.70311798,-73.99212000
3.70567798,-78.46308000
3.70823798,-78.46308000
3.71079798,-73.99212000
3.71335798,-78.46308000
3.71591798,-78.46308000
3.71847798,-78.46308000
3.72103798,-78.46308000
3.72359798,-78.46308000
3.72615798,-78.46308000
3.72871798,-78.46308000
3.73127798,-73.99212000
3.73383798,-78.46308000
3.73639798,-78.46308000
3.73895798,-78.46308000
3.74151798,-73.99212000
3.74407798,-78.46308000
3.74663798,-78.46308000
3.74919798,-78.46308000
3.75175798,-78.46308000
3.75431798,-73.99212000
3.75687798,-78.46308000
3.75943798,-73.99212000
3.76199798,-78.46308000
3.76455798,-78.46308000
3.76711798,-78.46308000
3.76967798,-78.46308000
3.77223798,-78.46308000
3.77479798,-78.46308000
3.77735798,-78.46308000
3.77991798,-78.46308000
3.78247798,-78.46308000
3.78503798,-78.46308000
3.78759798,-78.46308000
3.79015798,-78.46308000
3.79271798,-78.46308000
3.79527798,-78.46308000
3.79783798,-78.46308000
3.80039798,-78.46308000
3.80295798,-78.46308000
3.80551798,-78.46308000
3.80807798,-78.46308000
3.81063798,-78.46308000
3.81319798,-78.46308000
3.81575798,-78.46308000
3.81831798,-78.46308000
3.82087798,-78.46308000
3.82343798,-73.99212000
3.82599798,-78.46308000
3.82855798,-78.46308000
3.83111798,-78.46308000
3.83367798,-78.46308000
3.83623798,-78.46308000
3.83879798,-78.46308000
3.84135798,-78.46308000
3.84391798,-73.99212000
3.84647798,-78.46308000
3.84903798,-78.46308000
3.85159798,-78.46308000
3.85415798,-78.46308000
3.85671798,-73.99212000
3.85927798,-78.46308000
3.86183798,-78.46308000
3.86439798,-78.46308000
3.86695798,-78.46308000
3.86951798,-78.46308000
3.87207798,-78.46308000
3.87463798,-78.46308000
3.87719798,-78.46308000
3.87975798,-78.46308000
3.88231798,-78.46308000
3.88487798,-78.46308000
3.88743798,-78.46308000
3.88999798,-73.99212000
3.89255798,-78.46308000
3.89511798,-78.46308000
3.89767798,-78.46308000
3.90023798,-78.46308000
3.90279798,-78.46308000
3.90535798,-73.99212000
3.90791798,-73.99212000
3.91047798,-78.46308000
3.91303798,-78.46308000
3.91559798,-73.99212000
3.91815798,-73.99212000
3.92071798,-73.99212000
3.92327798,-73.99212000
3.92583798,-73.99212000
3.92839798,-73.99212000
3.93095798,-73.99212000
3.93351798,-73.99212000
3.93607798,-78.46308000
3.93863798,-78.46308000
3.94119798,-78.46308000
3.94375798,-69.50591000
3.94631798,-69.50591000
3.94887798,-73.99212000
3.95143798,-73.99212000
3.95399798,-73.99212000
3.95655798,-73.99212000
3.95911798,-73.99212000
3.96167798,-73.99212000
3.96423798,-73.99212000
3.96679798,-73.99212000
3.96935798,-73.99212000
3.97191798,-73.99212000
3.97447798,-73.99212000
3.97703798,-73.99212000
3.97959798,-73.99212000
3.98215798,-69.50591000
3.98471798,-69.50591000
3.98727798,-73.99212000
3.98983798,-69.50591000
3.99239798,-69.50591000
3.99495798,-73.99212000
3.99751798,-69.50591000
4.00007798,-73.99212000
4.00263798,-69.50591000
4.00519798,-69.50591000
4.00775798,-73.99212000
4.01031798,-69.50591000
4.01287798,-69.50591000
4.01543798,-69.50591000
4.01799798,-73.99212000
4.02055798,-69.50591000
4.02311798,-69.50591000
4.02567798,-69.50591000
4.02823798,-69.50591000
4.03079798,-69.50591000
4.03335798,-69.50591000
4.03591798,-69.50591000
4.03847798,-69.50591000
4.04103798,-69.50591000
4.04359798,-69.50591000
4.04615798,-69.50591000
4.04871798,-69.50591000
4.05127798,-73.99212000
4.05383798,-73.99212000
4.05639798,-73.99212000
4.05895798,-69.50591000
4.06151798,-69.50591000
4.06407798,-69.50591000
4.06663798,-73.99212000
4.06919798,-69.50591000
4.07175798,-69.50591000
4.07431798,-69.50591000
4.07687798,-69.50591000
4.07943798,-69.50591000
4.08199798,-69.50591000
4.08455798,-69.50591000
4.08711798,-69.50591000
4.08967798,-69.50591000
4.09223798,-69.50591000
4.09479798,-69.50591000
4.09735798,-69.50591000
4.09991798,-69.50591000
4.10247798,-69.50591000
4.10503798,-69.50591000
4.10759798,-69.50591000
4.11015798,-73.99212000
4.11271798,-69.50591000
4.11527798,-69.50591000
4.11783798,-69.50591000
4.12039798,-69.50591000
4.12295798,-69.50591000
4.12551798,-69.50591000
4.12807798,-69.50591000
4.13063798,-69.50591000
4.13319798,-69.50591000
4.13575798,-69.50591000
4.13831798,-69.50591000
4.14087798,-69.50591000
4.14343798,-69.50591000
4.14599798,-69.50591000
4.14855798,-69.50591000
4.15111798,-69.50591000
4.15367798,-69.50591000
4.15623798,-69.50591000
4.15879798,-69.50591000
4.16135798,-69.50591000
4.16391798,-69.50591000
4.16647798,-69.50591000
4.16903798,-69.50591000
4.17159798,-69.50591000
4.17415798,-69.50591000
4.17671798,-69.50591000
4.17927798,-69.50591000
4.18183798,-69.50591000
4.18439798,-69.50591000
4.18695798,-69.50591000
4.18951798,-69.50591000
4.19207798,-69.50591000
4.19463798,-69.50591000
4.19719798,-69.50591000
4.19975798,-69.50591000
4.20231798,-69.50591000
4.20487798,-69.50591000
4.20743798,-69.50591000
4.20999798,-69.50591000
4.21255798,-69.50591000
4.21511798,-69.50591000
4.21767798,-69.50591000
4.22023798,-69.50591000
4.22279798,-69.50591000
4.22535798,-69.50591000
4.22791798,-69.50591000
4.23047798,-69.50591000
4.23303798,-69.50591000
4.23559798,-69.50591000
4.23815798,-69.50591000
4.24071798,-69.50591000
4.24327798,-69.50591000
4.24583798,-69.50591000
4.24839798,-69.50591000
4.25095798,-69.50591000
4.25351798,-69.50591000
4.25607798,-69.50591000
4.25863798,-69.50591000
4.26119798,-69.50591000
4.26375798,-69.50591000
4.26631798,-69.50591000
4.26887798,-69.50591000
4.27143798,-69.50591000
4.27399798,-69.50591000
4.27655798,-69.50591000
4.27911798,-69.50591000
4.28167798,-69.50591000
4.28423798,-69.50591000
4.28679798,-69.50591000
4.28935798,-69.50591000
4.29191798,-69.50591000
4.29447798,-69.50591000
4.29703798,-69.50591000
4.29959798,-69.50591000
4.30215798,-69.50591000
4.30471798,-69.50591000
4.30727798,-69.50591000
4.30983798,-69.50591000
4.31239798,-69.50591000
4.31495798,-69.50591000
4.31751798,-69.50591000
4.32007798,-69.50591000
4.32263798,-69.50591000
4.32519798,-69.50591000
4.32775798,-69.50591000
4.33031798,-69.50591000
4.33287798,-69.50591000
4.33543798,-69.50591000
4.33799798,-69.50591000
4.34055798,-69.50591000
4.34311798,-69.50591000
4.34567798,-69.50591000
4.34823798,-69.50591000
4.35079798,-69.50591000
4.35335798,-69.50591000
4.35591798,-69.50591000
4.35847798,-69.50591000
4.36103798,-69.50591000
4.36359798,-69.50591000
4.36615798,-69.50591000
4.36871798,-69.50591000
4.37127798,-69.50591000
4.37383798,-69.50591000
4.37639798,-69.50591000
4.37895798,-69.50591000
4.38151798,-69.50591000
4.38407798,-69.50591000
4.38663798,-69.50591000
4.38919798,-69.50591000
4.39175798,-69.50591000
4.39431798,-69.50591000
4.39687798,-69.50591000
4.39943798,-69.50591000
4.40199798,-69.50591000
4.40455798,-69.50591000
4.40711798,-69.50591000
4.40967798,-69.50591000
4.41223798,-69.50591000
4.41479798,-69.50591000
4.41735798,-69.50591000
4.41991798,-69.50591000
4.42247798,-69.50591000
4.42503798,-69.50591000
4.42759798,-69.50591000
4.43015798,-69.50591000
4.43271798,-69.50591000
4.43527798,-69.50591000
4.43783798,-69.50591000
4.44039798,-69.50591000
4.44295798,-69.50591000
4.44551798,-69.50591000
4.44807798,-69.50591000
4.45063798,-69.50591000
4.45319798,-69.50591000
4.45575798,-69.50591000
4.45831798,-69.50591000
4.46087798,-69.50591000
4.46343798,-69.50591000
4.46599798,-69.50591000
4.46855798,-69.50591000
4.47111798,-69.50591000
4.47367798,-69.50591000
4.47623798,-69.50591000
4.47879798,-69.50591000
4.48135798,-69.50591000
4.48391798,-69.50591000
4.48647798,-69.50591000
4.48903798,-69.50591000
4.49159798,-69.50591000
4.49415798,-69.50591000
4.49671798,-69.50591000
4.49927798,-69.50591000
4.50183798,-69.50591000
4.50439798,-69.50591000
4.50695798,-69.50591000
4.50951798,-69.50591000
4.51207798,-69.50591000
4.51463798,-69.50591000
4.51719798,-69.50591000
4.51975798,-69.50591000
4.52231798,-69.50591000
4.52487798,-69.50591000
4.52743798,-69.50591000
4.52999798,-69.50591000
4.53255798,-69.50591000
4.53511798,-69.50591000
4.53767798,-69.50591000
4.54023798,-69.50591000
4.54279798,-69.50591000
4.54535798,-69.50591000
4.54791798,-69.50591000
4.55047798,-69.50591000
4.55303798,-69.50591000
4.55559798,-69.50591000
4.55815798,-69.50591000
4.56071798,-69.50591000
4.56327798,-69.50591000
4.56583798,-69.50591000
4.56839798,-69.50591000
4.57095798,-69.50591000
4.57351798,-69.50591000
4.57607798,-69.50591000
4.57863798,-69.50591000
4.58119798,-69.50591000
4.58375798,-69.50591000
4.58631798,-69.50591000
4.58887798,-69.50591000
4.59143798,-69.50591000
4.59399798,-73.99212000
4.59655798,-69.50591000
4.59911798,-69.50591000
4.60167798,-69.50591000
4.60423798,-69.50591000
4.60679798,-69.50591000
4.60935798,-69.50591000
4.61191798,-69.50591000
4.61447798,-69.50591000
4.61703798,-69.50591000
4.61959798,-69.50591000
4.62215798,-69.50591000
4.62471798,-69.50591000
4.62727798,-69.50591000
4.62983798,-69.50591000
4.63239798,-69.50591000
4.63495798,-69.50591000
4.63751798,-69.50591000
4.64007798,-69.50591000
4.64263798,-69.50591000
4.64519798,-69.50591000
4.64775798,-69.50591000
4.65031798,-69.50591000
4.65287798,-69.50591000
4.65543798,-69.50591000
4.65799798,-69.50591000
4.66055798,-73.99212000
4.66311798,-69.50591000
4.66567798,-69.50591000
4.66823798,-69.50591000
4.67079798,-73.99212000
4.67335798,-69.50591000
4.67591798,-69.50591000
4.67847798,-69.50591000
4.68103798,-73.99212000
4.68359798,-73.99212000
4.68615798,-69.50591000
4.68871798,-73.99212000
4.69127798,-69.50591000
4.69383798,-69.50591000
4.69639798,-69.50591000
4.69895798,-69.50591000
4.70151798,-73.99212000
4.70407798,-69.50591000
4.70663798,-73.99212000
4.70919797,-73.99212000
4.71175797,-69.50591000
4.71431797,-73.99212000
4.71687797,-73.99212000
4.71943797,-69.50591000
4.72199797,-73.99212000
4.72455797,-73.99212000
4.72711797,-69.50591000
4.72967797,-73.99212000
4.73223797,-73.99212000
4.73479797,-73.99212000
4.73735797,-73.99212000
4.73991797,-73.99212000
4.74247797,-73.99212000
4.74503797,-73.99212000
4.74759797,-73.99212000
4.75015797,-73.99212000
4.75271797,-73.99212000
4.75527797,-73.99212000
4.75783797,-73.99212000
4.76039797,-73.99212000
4.76295797,-69.50591000
4.76551797,-73.99212000
4.76807797,-73.99212000
4.77063797,-73.99212000
4.77319797,-73.99212000
4.77575797,-73.99212000
4.77831797,-69.50591000
4.78087797,-73.99212000
4.78343797,-73.99212000
4.78599797,-73.99212000
4.78855797,-73.99212000
4.79111797,-73.99212000
4.79367797,-69.50591000
4.79623797,-69.50591000
4.79879797,-73.99212000
4.80135797,-73.99212000
4.80391797,-69.50591000
4.80647797,-73.99212000
4.80903797,-73.99212000
4.81159797,-73.99212000
4.81415797,-73.99212000
4.81671797,-73.99212000
4.81927797,-73.99212000
4.82183797,-69.50591000
4.82439797,-69.50591000
4.82695797,-73.99212000
4.82951797,-73.99212000
4.83207797,-69.50591000
4.83463797,-69.50591000
4.83719797,-73.99212000
4.83975797,-78.46308000
4.84231797,-73.99212000
4.84487797,-73.99212000
4.84743797,-73.99212000
4.84999797,-73.99212000
4.85255797,-73.99212000
4.85511797,-78.46308000
4.85767797,-78.46308000
4.86023797,-73.99212000
4.86279797,-73.99212000
4.86535797,-73.99212000
4.86791797,-73.99212000
4.87047797,-69.50591000
4.87303797,-78.46308000
4.87559797,-78.46308000
4.87815797,-73.99212000
4.88071797,-73.99212000
4.88327797,-73.99212000
4.88583797,-73.99212000
4.88839797,-73.99212000
4.89095797,-78.46308000
4.89351797,-73.99212000
4.89607797,-73.99212000
4.89863797,-73.99212000
4.90119797,-73.99212000
4.90375797,-73.99212000
4.90631797,-73.99212000
4.90887797,-73.99212000
4.91143797,-73.99212000
4.91399797,-73.99212000
4.91655797,-73.99212000
4.91911797,-73.99212000
4.92167797,-73.99212000
4.92423797,-73.99212000
4.92679797,-73.99212000
4.92935797,-73.99212000
4.93191797,-73.99212000
4.93447797,-73.99212000
4.93703797,-73.99212000
4.93959797,-73.99212000
4.94215797,-73.99212000
4.94471797,-73.99212000
4.94727797,-73.99212000
4.94983797,-73.99212000
4.95239797,-73.99212000
4.95495797,-73.99212000
4.95751797,-73.99212000
4.96007797,-69.50591000
4.96263797,-73.99212000
4.96519797,-73.99212000
4.96775797,-73.99212000
4.97031797,-73.99212000
4.97287797,-73.99212000
4.97543797,-73.99212000
4.97799797,-69.50591000
4.98055797,-73.99212000
4.98311797,-73.99212000
4.98567797,-73.99212000
4.98823797,-73.99212000
4.99079797,-69.50591000
4.99335797,-73.99212000
4.99591797,-69.50591000
4.99847797,-73.99212000
5.00103797,-73.99212000
5.00359797,-69.50591000
5.00615797,-73.99212000
5.00871797,-73.99212000
5.01127797,-69.50591000
5.01383797,-73.99212000
5.01639797,-73.99212000
5.01895797,-73.99212000
5.02151797,-73.99212000
5.02407797,-69.50591000
5.02663797,-73.99212000
5.02919797,-73.99212000
5.03175797,-73.99212000
5.03431797,-73.99212000
5.03687797,-73.99212000
5.03943797,-73.99212000
5.04199797,-73.99212000
5.04455797,-73.99212000
5.04711797,-73.99212000
5.04967797,-73.99212000
5.05223797,-73.99212000
5.05479797,-69.50591000
5.05735797,-73.99212000
5.05991797,-69.50591000
5.06247797,-69.50591000
5.06503797,-69.50591000
5.06759797,-73.99212000
5.07015797,-73.99212000
5.07271797,-73.99212000
5.07527797,-73.99212000
5.07783797,-73.99212000
5.08039797,-73.99212000
5.08295797,-73.99212000
5.08551797,-73.99212000
5.08807797,-73.99212000
5.09063797,-69.50591000
5.09319797,-73.99212000
5.09575797,-73.99212000
5.09831797,-73.99212000
5.10087797,-73.99212000
5.10343797,-73.99212000
5.10599797,-69.50591000
5.10855797,-73.99212000
5.11111797,-73.99212000
5.11367797,-73.99212000
5.11623797,-73.99212000
5.11879797,-69.50591000
5.12135797,-69.50591000
5.12391797,-73.99212000
5.12647797,-73.99212000
5.12903797,-73.99212000
5.13159797,-69.50591000
5.13415797,-73.99212000
5.13671797,-69.50591000
5.13927797,-69.50591000
5.14183797,-69.50591000
5.14439797,-73.99212000
5.14695797,-69.50591000
5.14951797,-69.50591000
5.15207797,-73.99212000
5.15463797,-69.50591000
5.15719797,-73.99212000
5.15975797,-73.99212000
5.16231797,-69.50591000
5.16487797,-69.50591000
5.16743797,-69.50591000
5.16999797,-69.50591000
5.17255797,-69.50591000
5.17511797,-73.99212000
5.17767797,-69.50591000
5.18023797,-73.99212000
5.18279797,-69.50591000
5.18535797,-69.50591000
5.18791797,-69.50591000
5.19047797,-69.50591000
5.19303797,-73.99212000
5.19559797,-69.50591000
5.19815797,-69.50591000
5.20071797,-73.99212000
5.20327797,-73.99212000
5.20583797,-69.50591000
5.20839797,-69.50591000
5.21095797,-69.50591000
5.21351797,-73.99212000
5.21607797,-69.50591000
5.21863797,-73.99212000
5.22119797,-69.50591000
5.22375797,-69.50591000
5.22631797,-73.99212000
5.22887797,-73.99212000
5.23143797,-69.50591000
5.23399797,-69.50591000
5.23655797,-69.50591000
5.23911797,-69.50591000
5.24167797,-69.50591000
5.24423797,-69.50591000
5.24679797,-69.50591000
5.24935797,-69.50591000
5.25191797,-73.99212000
5.25447797,-69.50591000
5.25703797,-69.50591000
5.25959797,-69.50591000
5.26215797,-69.50591000
5.26471797,-69.50591000
5.26727797,-69.50591000
5.26983797,-69.50591000
5.27239797,-73.99212000
5.27495797,-69.50591000
5.27751797,-73.99212000
5.28007797,-73.99212000
5.28263797,-73.99212000
5.28519797,-73.99212000
5.28775797,-69.50591000
5.29031797,-73.99212000
5.29287797,-69.50591000
5.29543797,-73.99212000
5.29799797,-69.50591000
5.30055797,-69.50591000
5.30311797,-69.50591000
5.30567797,-69.50591000
5.30823797,-69.50591000
5.31079797,-69.50591000
5.31335797,-69.50591000
5.31591797,-69.50591000
5.31847797,-69.50591000
5.32103797,-69.50591000
5.32359797,-69.50591000
5.32615797,-73.99212000
5.32871797,-69.50591000
5.33127797,-73.99212000
5.33383797,-73.99212000
5.33639797,-73.99212000
5.33895797,-69.50591000
5.34151797,-69.50591000
5.34407797,-69.50591000
5.34663797,-69.50591000
5.34919797,-69.50591000
5.35175797,-69.50591000
5.35431797,-69.50591000
5.35687797,-69.50591000
5.35943797,-69.50591000
5.36199797,-69.50591000
5.36455797,-69.50591000
5.36711797,-73.99212000
5.36967797,-73.99212000
5.37223797,-69.50591000
5.37479797,-69.50591000
5.37735797,-69.50591000
5.37991797,-73.99212000
5.38247797,-69.50591000
5.38503797,-69.50591000
5.38759797,-69.50591000
5.39015797,-73.99212000
5.39271797,-73.99212000
5.39527797,-69.50591000
5.39783797,-69.50591000
5.40039797,-73.99212000
5.40295797,-73.99212000
5.40551797,-73.99212000
5.40807797,-73.99212000
5.41063797,-73.99212000
5.41319797,-73.99212000
5.41575797,-73.99212000
5.41831797,-73.99212000
5.42087797,-73.99212000
5.42343797,-73.99212000
5.42599797,-73.99212000
5.42855797,-69.50591000
5.43111797,-73.99212000
5.43367797,-73.99212000
5.43623797,-69.50591000
5.43879797,-69.50591000
5.44135797,-73.99212000
5.44391797,-69.50591000
5.44647797,-73.99212000
5.44903797,-73.99212000
5.45159797,-73.99212000
5.45415797,-73.99212000
5.45671797,-73.99212000
5.45927797,-73.99212000
5.46183797,-73.99212000
5.46439797,-69.50591000
5.46695797,-73.99212000
5.46951797,-73.99212000
5.47207797,-73.99212000
5.47463797,-78.46308000
5.47719797,-73.99212000
5.47975797,-73.99212000
5.48231797,-73.99212000
5.48487797,-69.50591000
5.48743797,-73.99212000
5.48999797,-69.50591000
5.49255797,-73.99212000
5.49511797,-69.50591000
5.49767797,-73.99212000
5.50023797,-73.99212000
5.50279797,-69.50591000
5.50535797,-69.50591000
5.50791797,-69.50591000
5.51047797,-69.50591000
5.51303797,-73.99212000
5.51559797,-73.99212000
5.51815797,-73.99212000
5.52071797,-73.99212000
5.52327797,-73.99212000
5.52583797,-69.50591000
5.52839797,-69.50591000
5.53095797,-69.50591000
5.53351797,-69.50591000
5.53607797,-73.99212000
5.53863797,-69.50591000
5.54119797,-69.50591000
5.54375797,-73.99212000
5.54631797,-69.50591000
5.54887797,-69.50591000
5.55143797,-69.50591000
5.55399797,-69.50591000
5.55655797,-69.50591000
5.55911797,-69.50591000
5.56167797,-69.50591000
5.56423797,-69.50591000
5.56679797,-69.50591000
5.56935797,-69.50591000
5.57191797,-69.50591000
5.57447797,-69.50591000
5.57703797,-69.50591000
5.57959797,-69.50591000
5.58215797,-69.50591000
5.58471797,-69.50591000
5.58727797,-69.50591000
5.58983797,-69.50591000
5.59239797,-69.50591000
5.59495797,-69.50591000
5.59751797,-69.50591000
5.60007797,-69.50591000
5.60263797,-69.50591000
5.60519797,-69.50591000
5.60775797,-69.50591000
5.61031797,-69.50591000
5.61287797,-69.50591000
5.61543797,-69.50591000
5.61799797,-69.50591000
5.62055797,-69.50591000
5.62311797,-69.50591000
5.62567797,-69.50591000
5.62823797,-69.50591000
5.63079797,-69.50591000
5.63335797,-69.50591000
5.63591797,-69.50591000
5.63847797,-73.99212000
5.64103797,-73.99212000
5.64359797,-69.50591000
5.64615797,-69.50591000
5.64871797,-69.50591000
5.65127797,-69.50591000
5.65383797,-69.50591000
5.65639797,-69.50591000
5.65895797,-69.50591000
5.66151797,-69.50591000
5.66407797,-69.50591000
5.66663797,-69.50591000
5.66919797,-69.50591000
5.67175797,-73.99212000
5.67431797,-69.50591000
5.67687797,-69.50591000
5.67943797,-69.50591000
5.68199797,-69.50591000
5.68455797,-69.50591000
5.68711797,-69.50591000
5.68967797,-69.50591000
5.69223797,-73.99212000
5.69479797,-69.50591000
5.69735797,-69.50591000
5.69991797,-69.50591000
5.70247797,-69.50591000
5.70503797,-69.50591000
5.70759797,-69.50591000
5.71015797,-69.50591000
5.71271797,-69.50591000
5.71527797,-69.50591000
5.71783797,-69.50591000
5.72039797,-69.50591000
5.72295797,-69.50591000
5.72551797,-69.50591000
5.72807797,-69.50591000
5.73063797,-73.99212000
5.73319797,-69.50591000
5.73575797,-69.50591000
5.73831797,-69.50591000
5.74087797,-69.50591000
5.74343797,-69.50591000
5.74599797,-69.50591000
5.74855797,-73.99212000
5.75111797,-69.50591000
5.75367797,-69.50591000
5.75623797,-69.50591000
5.75879797,-73.99212000
5.76135797,-69.50591000
5.76391797,-73.99212000
5.76647797,-73.99212000
5.76903797,-73.99212000
5.77159797,-73.99212000
5.77415797,-69.50591000
5.77671797,-73.99212000
5.77927797,-73.99212000
5.78183797,-69.50591000
5.78439797,-69.50591000
5.78695797,-69.50591000
5.78951797,-73.99212000
5.79207797,-69.50591000
5.79463797,-73.99212000
5.79719797,-73.99212000
5.79975797,-69.50591000
5.80231797,-73.99212000
5.80487797,-73.99212000
5.80743797,-73.99212000
5.80999797,-73.99212000
5.81255797,-69.50591000
5.81511797,-69.50591000
5.81767797,-73.99212000
5.82023797,-73.99212000
5.82279797,-73.99212000
5.82535797,-73.99212000
5.82791797,-69.50591000
5.83047797,-73.99212000
5.83303797,-69.50591000
5.83559797,-73.99212000
5.83815797,-73.99212000
5.84071797,-69.50591000
5.84327797,-73.99212000
5.84583797,-73.99212000
5.84839797,-73.99212000
5.85095797,-73.99212000
5.85351797,-73.99212000
5.85607797,-69.50591000
5.85863797,-73.99212000
5.86119797,-73.99212000
5.86375797,-73.99212000
5.86631797,-73.99212000
5.86887797,-73.99212000
5.87143797,-73.99212000
5.87399797,-73.99212000
5.87655797,-73.99212000
5.87911797,-69.50591000
5.88167797,-73.99212000
5.88423797,-73.99212000
5.88679797,-73.99212000
5.88935797,-73.99212000
5.89191797,-73.99212000
5.89447797,-69.50591000
5.89703797,-69.50591000
5.89959797,-69.50591000
5.90215797,-69.50591000
5.90471797,-73.99212000
5.90727797,-73.99212000
5.90983797,-73.99212000
5.91239797,-69.50591000
5.91495797,-69.50591000
5.91751797,-69.50591000
5.92007797,-73.99212000
5.92263797,-73.99212000
5.92519797,-73.99212000
5.92775797,-73.99212000
5.93031797,-69.50591000
5.93287797,-73.99212000
5.93543797,-73.99212000
5.93799797,-73.99212000
5.94055797,-73.99212000
5.94311797,-73.99212000
5.94567797,-73.99212000
5.94823797,-73.99212000
5.95079797,-73.99212000
5.95335797,-73.99212000
5.95591797,-73.99212000
5.95847797,-73.99212000
5.96103797,-73.99212000
5.96359797,-73.99212000
5.96615797,-73.99212000
5.96871797,-69.50591000
5.97127797,-73.99212000
5.97383797,-73.99212000
5.97639797,-73.99212000
5.97895797,-73.99212000
5.98151797,-73.99212000
5.98407797,-73.99212000
5.98663797,-73.99212000
5.98919797,-73.99212000
5.99175797,-73.99212000
5.99431797,-69.50591000
5.99687797,-73.99212000
5.99943797,-69.50591000
6.00199797,-73.99212000
6.00455797,-73.99212000
6.00711797,-73.99212000
6.00967797,-69.50591000
6.01223797,-69.50591000
6.01479797,-73.99212000
6.01735797,-69.50591000
6.01991797,-69.50591000
6.02247797,-69.50591000
6.02503797,-69.50591000
6.02759797,-69.50591000
6.03015797,-73.99212000
6.03271797,-69.50591000
6.03527797,-69.50591000
6.03783797,-69.50591000
6.04039797,-69.50591000
6.04295797,-73.99212000
6.04551797,-69.50591000
6.04807797,-69.50591000
6.05063797,-69.50591000
6.05319797,-69.50591000
6.05575797,-69.50591000
6.05831797,-73.99212000
6.06087797,-73.99212000
6.06343797,-69.50591000
6.06599797,-69.50591000
6.06855797,-69.50591000
6.07111797,-69.50591000
6.07367797,-69.50591000
6.07623797,-69.50591000
6.07879797,-73.99212000
6.08135797,-73.99212000
6.08391797,-73.99212000
6.08647797,-73.99212000
6.08903797,-73.99212000
6.09159797,-73.99212000
6.09415797,-69.50591000
6.09671797,-69.50591000
6.09927797,-69.50591000
6.10183797,-73.99212000
6.10439797,-69.50591000
6.10695797,-69.50591000
6.10951797,-69.50591000
6.11207797,-69.50591000
6.11463797,-69.50591000
6.11719797,-69.50591000
6.11975797,-69.50591000
6.12231797,-73.99212000
6.12487797,-69.50591000
6.12743797,-69.50591000
6.12999797,-73.99212000
6.13255797,-73.99212000
6.13511797,-69.50591000
6.13767797,-73.99212000
6.14023797,-69.50591000
6.14279797,-69.50591000
6.14535797,-69.50591000
6.14791797,-69.50591000
6.15047797,-73.99212000
6.15303797,-73.99212000
6.15559797,-73.99212000
6.15815797,-69.50591000
6.16071797,-69.50591000
6.16327797,-69.50591000
6.16583797,-69.50591000
6.16839797,-69.50591000
6.17095797,-73.99212000
6.17351797,-69.50591000
6.17607797,-69.50591000
6.17863797,-69.50591000
6.18119797,-69.50591000
6.18375797,-69.50591000
6.18631797,-69.50591000
6.18887797,-69.50591000
6.19143797,-69.50591000
6.19399797,-69.50591000
6.19655797,-69.50591000
6.19911797,-69.50591000
6.20167797,-69.50591000
6.20423797,-69.50591000
6.20679797,-69.50591000
6.20935797,-69.50591000
6.21191797,-69.50591000
6.21447797,-69.50591000
6.21703797,-69.50591000
6.21959797,-69.50591000
6.22215797,-69.50591000
6.22471797,-69.50591000
6.22727797,-69.50591000
6.22983797,-69.50591000
6.23239797,-69.50591000
6.23495797,-69.50591000
6.23751797,-69.50591000
6.24007797,-69.50591000
6.24263797,-69.50591000
6.24519797,-69.50591000
6.24775797,-69.50591000
6.25031797,-69.50591000
6.25287797,-69.50591000
6.25543797,-69.50591000
6.25799797,-69.50591000
6.26055797,-69.50591000
6.26311797,-69.50591000
6.26567797,-69.50591000
6.26823797,-69.50591000
6.27079797,-69.50591000
6.27335797,-69.50591000
6.27591797,-69.50591000
6.27847797,-73.99212000
6.28103797,-69.50591000
6.28359797,-69.50591000
6.28615797,-73.99212000
6.28871797,-73.99212000
6.29127797,-69.50591000
6.29383797,-69.50591000
6.29639797,-69.50591000
6.29895797,-69.50591000
6.30151797,-73.99212000
6.30407797,-69.50591000
6.30663797,-69.50591000
6.30919797,-69.50591000
6.31175797,-69.50591000
6.31431797,-69.50591000
6.31687797,-73.99212000
6.31943797,-69.50591000
6.32199797,-69.50591000
6.32455797,-69.50591000
6.32711797,-69.50591000
6.32967797,-69.50591000
6.33223797,-69.50591000
6.33479797,-69.50591000
6.33735797,-69.50591000
6.33991797,-69.50591000
6.34247797,-69.50591000
6.34503797,-69.50591000
6.34759797,-69.50591000
6.35015797,-69.50591000
6.35271797,-69.50591000
6.35527796,-69.50591000
6.35783796,-69.50591000
6.36039796,-69.50591000
6.36295796,-69.50591000
6.36551796,-69.50591000
6.36807796,-69.50591000
6.37063796,-69.50591000
6.37319796,-69.50591000
6.37575796,-69.50591000
6.37831796,-69.50591000
6.38087796,-69.50591000
6.38343796,-69.50591000
6.38599796,-69.50591000
6.38855796,-69.50591000
6.39111796,-69.50591000
6.39367796,-69.50591000
6.39623796,-69.50591000
6.39879796,-69.50591000
6.40135796,-69.50591000
6.40391796,-69.50591000
6.40647796,-69.50591000
6.40903796,-69.50591000
6.41159796,-69.50591000
6.41415796,-69.50591000
6.41671796,-69.50591000
6.41927796,-69.50591000
6.42183796,-69.50591000
6.42439796,-69.50591000
6.42695796,-69.50591000
6.42951796,-69.50591000
6.43207796,-69.50591000
6.43463796,-69.50591000
6.43719796,-69.50591000
6.43975796,-69.50591000
6.44231796,-69.50591000
6.44487796,-69.50591000
6.44743796,-69.50591000
6.44999796,-69.50591000
6.45255796,-69.50591000
6.45511796,-69.50591000
6.45767796,-69.50591000
6.46023796,-69.50591000
6.46279796,-69.50591000
6.46535796,-69.50591000
6.46791796,-69.50591000
6.47047796,-69.50591000
6.47303796,-69.50591000
6.47559796,-69.50591000
6.47815796,-69.50591000
6.48071796,-69.50591000
6.48327796,-69.50591000
6.48583796,-69.50591000
6.48839796,-69.50591000
6.49095796,-69.50591000
6.49351796,-69.50591000
6.49607796,-69.50591000
6.49863796,-69.50591000
6.50119796,-69.50591000
6.50375796,-69.50591000
6.50631796,-69.50591000
6.50887796,-69.50591000
6.51143796,-69.50591000
6.51399796,-69.50591000
6.51655796,-69.50591000
6.51911796,-69.50591000
6.52167796,-69.50591000
6.52423796,-69.50591000
6.52679796,-69.50591000
6.52935796,-69.50591000
6.53191796,-69.50591000
6.53447796,-69.50591000
6.53703796,-69.50591000
6.53959796,-69.50591000
6.54215796,-69.50591000
6.54471796,-69.50591000
6.54727796,-73.99212000
6.54983796,-69.50591000
6.55239796,-69.50591000
6.55495796,-69.50591000
6.55751796,-69.50591000
6.56007796,-69.50591000
6.56263796,-73.99212000
6.56519796,-69.50591000
6.56775796,-69.50591000
6.57031796,-69.50591000
6.57287796,-73.99212000
6.57543796,-69.50591000
6.57799796,-69.50591000
6.58055796,-69.50591000
6.58311796,-69.50591000
6.58567796,-69.50591000
6.58823796,-69.50591000
6.59079796,-69.50591000
6.59335796,-69.50591000
6.59591796,-69.50591000
6.59847796,-69.50591000
6.60103796,-69.50591000
6.60359796,-69.50591000
6.60615796,-69.50591000
6.60871796,-69.50591000
6.61127796,-69.50591000
6.61383796,-69.50591000
6.61639796,-69.50591000
6.61895796,-69.50591000
6.62151796,-69.50591000
6.62407796,-69.50591000
6.62663796,-73.99212000
6.62919796,-69.50591000
6.63175796,-69.50591000
6.63431796,-69.50591000
6.63687796,-69.50591000
6.63943796,-69.50591000
6.64199796,-69.50591000
6.64455796,-69.50591000
6.64711796,-73.99212000
6.64967796,-73.99212000
6.65223796,-69.50591000
6.65479796,-69.50591000
6.65735796,-69.50591000
6.65991796,-73.99212000
6.66247796,-73.99212000
6.66503796,-69.50591000
6.66759796,-69.50591000
6.67015796,-69.50591000
6.67271796,-73.99212000
6.67527796,-73.99212000
6.67783796,-69.50591000
6.68039796,-73.99212000
6.68295796,-69.50591000
6.68551796,-73.99212000
6.68807796,-73.99212000
6.69063796,-73.99212000
6.69319796,-69.50591000
6.69575796,-69.50591000
6.69831796,-73.99212000
6.70087796,-73.99212000
6.70343796,-73.99212000
6.70599796,-73.99212000
6.70855796,-69.50591000
6.71111796,-73.99212000
6.71367796,-73.99212000
6.71623796,-73.99212000
6.71879796,-73.99212000
6.72135796,-73.99212000
6.72391796,-73.99212000
6.72647796,-73.99212000
6.72903796,-73.99212000
6.73159796,-73.99212000
6.73415796,-73.99212000
6.73671796,-73.99212000
6.73927796,-73.99212000
6.74183796,-78.46308000
6.74439796,-78.46308000
6.74695796,-78.46308000
6.74951796,-78.46308000
6.75207796,-78.46308000
6.75463796,-78.46308000
6.75719796,-78.46308000
6.75975796,-73.99212000
6.76231796,-78.46308000
6.76487796,-78.46308000
6.76743796,-73.99212000
6.76999796,-78.46308000
6.77255796,-78.46308000
6.77511796,-78.46308000
6.77767796,-78.46308000
6.78023796,-78.46308000
6.78279796,-78.46308000
6.78535796,-78.46308000
6.78791796,-78.46308000
6.79047796,-78.46308000
6.79303796,-78.46308000
6.79559796,-78.46308000
6.79815796,-78.46308000
6.80071796,-78.46308000
6.80327796,-78.46308000
6.80583796,-78.46308000
6.80839796,-78.46308000
6.81095796,-78.46308000
6.81351796,-78.46308000
6.81607796,-78.46308000
6.81863796,-78.46308000
6.82119796,-82.93404000
6.82375796,-82.93404000
6.82631796,-82.93404000
6.82887796,-82.93404000
6.83143796,-82.93404000
6.83399796,-82.93404000
6.83655796,-82.93404000
6.83911796,-87.40501000
6.84167796,-82.93404000
6.84423796,-82.93404000
6.84679796,-82.93404000
6.84935796,-82.93404000
6.85191796,-87.40501000
6.85447796,-87.40501000
6.85703796,-87.40501000
6.85959796,-87.40501000
6.86215796,-87.40501000
6.86471796,-87.40501000
6.86727796,-87.40501000
6.86983796,-87.40501000
6.87239796,-87.40501000
6.87495796,-87.40501000
6.87751796,-87.40501000
6.88007796,-87.40501000
6.88263796,-87.40501000
6.88519796,-91.87596000
6.88775796,-91.87596000
6.89031796,-91.87596000
6.89287796,-91.87596000
6.89543796,-91.87596000
6.89799796,-91.87596000
6.90055796,-91.87596000
6.90311796,-96.34693000
6.90567796,-96.34693000
6.90823796,-96.34693000
6.91079796,-96.34693000
6.91335796,-96.34693000
6.91591796,-96.34693000
6.91847796,-96.34693000
6.92103796,-96.34693000
6.92359796,-96.34693000
6.92615796,-96.34693000
6.92871796,-96.34693000
6.93127796,-96.34693000
6.93383796,-96.34693000
6.93639796,-96.34693000
6.93895796,-100.81790000
6.94151796,-100.81790000
6.94407796,-100.81790000
6.94663796,-100.81790000
6.94919796,-105.28880000
6.95175796,-100.81790000
6.95431796,-100.81790000
6.95687796,-105.28880000
6.95943796,-105.28880000
6.96199796,-105.28880000
6.96455796,-105.28880000
6.96711796,-105.28880000
6.96967796,-105.28880000
6.97223796,-105.28880000
6.97479796,-105.28880000
6.97735796,-105.28880000
6.97991796,-105.28880000
6.98247796,-105.28880000
6.98503796,-105.28880000
6.98759796,-105.28880000
6.99015796,-105.28880000
6.99271796,-105.28880000
6.99527796,-105.28880000
6.99783796,-109.75980000
7.00039796,-105.28880000
7.00295796,-109.75980000
7.00551796,-105.28880000
7.00807796,-109.75980000
7.01063796,-109.75980000
7.01319796,-109.75980000
7.01575796,-109.75980000
7.01831796,-114.23080000
7.02087796,-114.23080000
7.02343796,-114.23080000
7.02599796,-114.23080000
7.02855796,-114.23080000
7.03111796,-114.23080000
7.03367796,-114.23080000
7.03623796,-114.23080000
7.03879796,-114.23080000
7.04135796,-114.23080000
7.04391796,-114.23080000
7.04647796,-114.23080000
7.04903796,-114.23080000
7.05159796,-118.70170000
7.05415796,-114.23080000
7.05671796,-114.23080000
7.05927796,-114.23080000
7.06183796,-114.23080000
7.06439796,-118.70170000
7.06695796,-114.23080000
7.06951796,-114.23080000
7.07207796,-114.23080000
7.07463796,-114.23080000
7.07719796,-118.70170000
7.07975796,-118.70170000
7.08231796,-118.70170000
7.08487796,-118.70170000
7.08743796,-118.70170000
7.08999796,-114.23080000
7.09255796,-118.70170000
7.09511796,-118.70170000
7.09767796,-118.70170000
7.10023796,-118.70170000
7.10279796,-118.70170000
7.10535796,-118.70170000
7.10791796,-118.70170000
7.11047796,-118.70170000
7.11303796,-118.70170000
7.11559796,-118.70170000
7.11815796,-118.70170000
7.12071796,-118.70170000
7.12327796,-123.17270000
7.12583796,-118.70170000
7.12839796,-118.70170000
7.13095796,-123.17270000
7.13351796,-123.17270000
7.13607796,-118.70170000
7.13863796,-118.70170000
7.14119796,-118.70170000
7.14375796,-118.70170000
7.14631796,-118.70170000
7.14887796,-118.70170000
7.15143796,-118.70170000
7.15399796,-118.70170000
7.15655796,-118.70170000
7.15911796,-123.17270000
7.16167796,-123.17270000
7.16423796,-118.70170000
7.16679796,-123.17270000
7.16935796,-123.17270000
7.17191796,-123.17270000
7.17447796,-118.70170000
7.17703796,-123.17270000
7.17959796,-118.70170000
7.18215796,-123.17270000
7.18471796,-123.17270000
7.18727796,-118.70170000
7.18983796,-123.17270000
7.19239796,-118.70170000
7.19495796,-118.70170000
7.19751796,-118.70170000
7.20007796,-118.70170000
7.20263796,-118.70170000
7.20519796,-118.70170000
7.20775796,-118.70170000
7.21031796,-118.70170000
7.21287796,-118.70170000
7.21543796,-123.17270000
7.21799796,-118.70170000
7.22055796,-118.70170000
7.22311796,-118.70170000
7.22567796,-118.70170000
7.22823796,-118.70170000
7.23079796,-118.70170000
7.23335796,-118.70170000
7.23591796,-118.70170000
7.23847796,-118.70170000
7.24103796,-118.70170000
7.24359796,-118.70170000
7.24615796,-118.70170000
7.24871796,-118.70170000
7.25127796,-118.70170000
7.25383796,-118.70170000
7.25639796,-118.70170000
7.25895796,-118.70170000
7.26151796,-114.23080000
7.26407796,-118.70170000
7.26663796,-114.23080000
7.26919796,-114.23080000
7.27175796,-118.70170000
7.27431796,-114.23080000
7.27687796,-114.23080000
7.27943796,-114.23080000
7.28199796,-114.23080000
7.28455796,-114.23080000
7.28711796,-114.23080000
7.28967796,-114.23080000
7.29223796,-114.23080000
7.29479796,-114.23080000
7.29735796,-114.23080000
7.29991796,-114.23080000
7.30247796,-114.23080000
7.30503796,-114.23080000
7.30759796,-114.23080000
7.31015796,-109.75980000
7.31271796,-114.23080000
7.31527796,-109.75980000
7.31783796,-109.75980000
7.32039796,-109.75980000
7.32295796,-109.75980000
7.32551796,-109.75980000
7.32807796,-114.23080000
7.33063796,-109.75980000
7.33319796,-105.28880000
7.33575796,-105.28880000
7.33831796,-109.75980000
7.34087796,-105.28880000
7.34343796,-105.28880000
7.34599796,-109.75980000
7.34855796,-105.28880000
7.35111796,-105.28880000
7.35367796,-105.28880000
7.35623796,-105.28880000
7.35879796,-105.28880000
7.36135796,-105.28880000
7.36391796,-105.28880000
7.36647796,-105.28880000
7.36903796,-105.28880000
7.37159796,-105.28880000
7.37415796,-105.28880000
7.37671796,-105.28880000
7.37927796,-105.28880000
7.38183796,-105.28880000
7.38439796,-105.28880000
7.38695796,-105.28880000
7.38951796,-105.28880000
7.39207796,-100.81790000
7.39463796,-105.28880000
7.39719796,-100.81790000
7.39975796,-100.81790000
7.40231796,-100.81790000
7.40487796,-100.81790000
7.40743796,-100.81790000
7.40999796,-100.81790000
7.41255796,-100.81790000
7.41511796,-100.81790000
7.41767796,-100.81790000
7.42023796,-100.81790000
7.42279796,-100.81790000
7.42535796,-96.34693000
7.42791796,-100.81790000
7.43047796,-96.34693000
7.43303796,-96.34693000
7.43559796,-96.34693000
7.43815796,-96.34693000
7.44071796,-96.34693000
7.44327796,-96.34693000
7.44583796,-96.34693000
7.44839796,-96.34693000
7.45095796,-96.34693000
7.45351796,-96.34693000
7.45607796,-91.87596000
7.45863796,-91.87596000
7.46119796,-96.34693000
7.46375796,-96.34693000
7.46631796,-96.34693000
7.46887796,-96.34693000
7.47143796,-91.87596000
7.47399796,-91.87596000
7.47655796,-91.87596000
7.47911796,-91.87596000
7.48167796,-91.87596000
7.48423796,-91.87596000
7.48679796,-91.87596000
7.48935796,-91.87596000
7.49191796,-87.40501000
7.49447796,-87.40501000
7.49703796,-87.40501000
7.49959796,-87.40501000
7.50215796,-87.40501000
7.50471796,-87.40501000
7.50727796,-87.40501000
7.50983796,-87.40501000
7.51239796,-87.40501000
7.51495796,-87.40501000
7.51751796,-87.40501000
7.52007796,-87.40501000
7.52263796,-87.40501000
7.52519796,-87.40501000
7.52775796,-87.40501000
7.53031796,-87.40501000
7.53287796,-87.40501000
7.53543796,-87.40501000
7.53799796,-87.40501000
7.54055796,-87.40501000
7.54311796,-87.40501000
7.54567796,-87.40501000
7.54823796,-82.93404000
7.55079796,-87.40501000
7.55335796,-82.93404000
7.55591796,-87.40501000
7.55847796,-82.93404000
7.56103796,-82.93404000
7.56359796,-82.93404000
7.56615796,-82.93404000
7.56871796,-82.93404000
7.57127796,-82.93404000
7.57383796,-82.93404000
7.57639796,-82.93404000
7.57895796,-78.46308000
7.58151796,-78.46308000
7.58407796,-82.93404000
7.58663796,-78.46308000
7.58919796,-82.93404000
7.59175796,-78.46308000
7.59431796,-78.46308000
7.59687796,-78.46308000
7.59943796,-78.46308000
7.60199796,-78.46308000
7.60455796,-78.46308000
7.60711796,-78.46308000
7.60967796,-78.46308000
7.61223796,-78.46308000
7.61479796,-78.46308000
7.61735796,-78.46308000
7.61991796,-78.46308000
7.62247796,-78.46308000
7.62503796,-78.46308000
7.62759796,-78.46308000
7.63015796,-78.46308000
7.63271796,-78.46308000
7.63527796,-78.46308000
7.63783796,-78.46308000
7.64039796,-73.99212000
7.64295796,-73.99212000
7.64551796,-78.46308000
7.64807796,-73.99212000
7.65063796,-73.99212000
7.65319796,-73.99212000
7.65575796,-73.99212000
7.65831796,-73.99212000
7.66087796,-73.99212000
7.66343796,-73.99212000
7.66599796,-73.99212000
7.66855796,-73.99212000
7.67111796,-73.99212000
7.67367796,-73.99212000
7.67623796,-73.99212000
7.67879796,-69.50591000
7.68135796,-69.50591000
7.68391796,-73.99212000
7.68647796,-69.50591000
7.68903796,-73.99212000
7.69159796,-69.50591000
7.69415796,-69.50591000
7.69671796,-69.50591000
7.69927796,-69.50591000
7.70183796,-69.50591000
7.70439796,-69.50591000
7.70695796,-69.50591000
7.70951796,-69.50591000
7.71207796,-69.50591000
7.71463796,-69.50591000
7.71719796,-69.50591000
7.71975796,-69.50591000
7.72231796,-69.50591000
7.72487796,-69.50591000
7.72743796,-69.50591000
7.72999796,-69.50591000
7.73255796,-69.50591000
7.73511796,-69.50591000
7.73767796,-69.50591000
7.74023796,-69.50591000
7.74279796,-69.50591000
7.74535796,-69.50591000
7.74791796,-69.50591000
7.75047796,-69.50591000
7.75303796,-69.50591000
7.75559796,-69.50591000
7.75815796,-69.50591000
7.76071796,-69.50591000
7.76327796,-69.50591000
7.76583796,-69.50591000
7.76839796,-69.50591000
7.77095796,-69.50591000
7.77351796,-69.50591000
7.77607796,-69.50591000
7.77863796,-69.50591000
7.78119796,-69.50591000
7.78375796,-69.50591000
7.78631796,-69.50591000
7.78887796,-69.50591000
7.79143796,-69.50591000
7.79399796,-69.50591000
7.79655796,-69.50591000
7.79911796,-69.50591000
7.80167796,-69.50591000
7.80423796,-69.50591000
7.80679796,-69.50591000
7.80935796,-69.50591000
7.81191796,-69.50591000
7.81447796,-69.50591000
7.81703796,-69.50591000
7.81959796,-69.50591000
7.82215796,-69.50591000
7.82471796,-69.50591000
7.82727796,-69.50591000
7.82983796,-69.50591000
7.83239796,-69.50591000
7.83495796,-65.03493000
7.83751796,-69.50591000
7.84007796,-69.50591000
7.84263796,-65.03493000
7.84519796,-69.50591000
7.84775796,-65.03493000
7.85031796,-65.03493000
7.85287796,-65.03493000
7.85543796,-65.03493000
7.85799796,-65.03493000
7.86055796,-65.03493000
7.86311796,-65.03493000
7.86567796,-60.56398000
7.86823796,-65.03493000
7.87079796,-65.03493000
7.87335796,-60.56398000
7.87591796,-60.56398000
7.87847796,-60.56398000
7.88103796,-60.56398000
7.88359796,-60.56398000
7.88615796,-60.56398000
7.88871796,-60.56398000
7.89127796,-60.56398000
7.89383796,-60.56398000
7.89639796,-60.56398000
7.89895796,-60.56398000
7.90151796,-60.56398000
7.90407796,-56.09302000
7.90663796,-60.56398000
7.90919796,-56.09302000
7.91175796,-56.09302000
7.91431796,-56.09302000
7.91687796,-56.09302000
7.91943796,-51.62206000
7.92199796,-51.62206000
7.92455796,-56.09302000
7.92711796,-51.62206000
7.92967796,-51.62206000
7.93223796,-51.62206000
7.93479796,-51.62206000
7.93735796,-51.62206000
7.93991796,-51.62206000
7.94247796,-51.62206000
7.94503796,-51.62206000
7.94759796,-51.62206000
7.95015796,-51.62206000
7.95271796,-47.15109000
7.95527796,-47.15109000
7.95783796,-47.15109000
7.96039796,-47.15109000
7.96295796,-42.68013000
7.96551796,-42.68013000
7.96807796,-42.68013000
7.97063796,-42.68013000
7.97319796,-42.68013000
7.97575796,-42.68013000
7.97831796,-42.68013000
7.98087796,-42.68013000
7.98343796,-38.20917000
7.98599796,-42.68013000
7.98855796,-42.68013000
7.99111796,-38.20917000
7.99367796,-42.68013000
7.99623796,-38.20917000
7.99879795,-33.73821000
8.00135795,-38.20917000
8.00391795,-38.20917000
8.00647795,-38.20917000
8.00903795,-33.73821000
8.01159795,-33.73821000
8.01415795,-33.73821000
8.01671795,-33.73821000
8.01927795,-33.73821000
8.02183795,-33.73821000
8.02439795,-33.73821000
8.02695795,-33.73821000
8.02951795,-33.73821000
8.03207795,-33.73821000
8.03463795,-33.73821000
8.03719795,-29.26725000
8.03975795,-29.26725000
8.04231795,-29.26725000
8.04487795,-29.26725000
8.04743795,-29.26725000
8.04999795,-29.26725000
8.05255795,-24.79629000
8.05511795,-29.26725000
8.05767795,-29.26725000
8.06023795,-24.79629000
8.06279795,-29.26725000
8.06535795,-24.79629000
8.06791795,-24.79629000
8.07047795,-24.79629000
8.07303795,-24.79629000
8.07559795,-24.79629000
8.07815795,-24.79629000
8.08071795,-24.79629000
8.08327795,-24.79629000
8.08583795,-24.79629000
8.08839795,-20.32533000
8.09095795,-24.79629000
8.09351795,-20.32533000
8.09607795,-24.79629000
8.09863795,-24.79629000
8.10119795,-20.32533000
8.10375795,-24.79629000
8.10631795,-24.79629000
8.10887795,-20.32533000
8.11143795,-20.32533000
8.11399795,-20.32533000
8.11655795,-24.79629000
8.11911795,-20.32533000
8.12167795,-20.32533000
8.12423795,-20.32533000
8.12679795,-20.32533000
8.12935795,-20.32533000
8.13191795,-24.79629000
8.13447795,-20.32533000
8.13703795,-20.32533000
8.13959795,-15.85437000
8.14215795,-20.32533000
8.14471795,-15.85437000
8.14727795,-20.32533000
8.14983795,-15.85437000
8.15239795,-15.85437000
8.15495795,-15.85437000
8.15751795,-15.85437000
8.16007795,-15.85437000
8.16263795,-20.32533000
8.16519795,-15.85437000
8.16775795,-15.85437000
8.17031795,-15.85437000
8.17287795,-15.85437000
8.17543795,-15.85437000
8.17799795,-15.85437000
8.18055795,-15.85437000
8.18311795,-15.85437000
8.18567795,-15.85437000
8.18823795,-15.85437000
8.19079795,-15.85437000
8.19335795,-15.85437000
8.19591795,-15.85437000
8.19847795,-15.85437000
8.20103795,-15.85437000
8.20359795,-15.85437000
8.20615795,-15.85437000
8.20871795,-15.85437000
8.21127795,-15.85437000
8.21383795,-15.85437000
8.21639795,-15.85437000
8.21895795,-15.85437000
8.22151795,-15.85437000
8.22407795,-15.85437000
8.22663795,-15.85437000
8.22919795,-15.85437000
8.23175795,-15.85437000
8.23431795,-15.85437000
8.23687795,-15.85437000
8.23943795,-15.85437000
8.24199795,-15.85437000
8.24455795,-15.85437000
8.24711795,-15.85437000
8.24967795,-15.85437000
8.25223795,-15.85437000
8.25479795,-15.85437000
8.25735795,-15.85437000
8.25991795,-15.85437000
8.26247795,-15.85437000
8.26503795,-15.85437000
8.26759795,-15.85437000
8.27015795,-15.85437000
8.27271795,-15.85437000
8.27527795,-15.85437000
8.27783795,-15.85437000
8.28039795,-15.85437000
8.28295795,-15.85437000
8.28551795,-15.85437000
8.28807795,-15.85437000
8.29063795,-15.85437000
8.29319795,-15.85437000
8.29575795,-15.85437000
8.29831795,-15.85437000
8.30087795,-15.85437000
8.30343795,-15.85437000
8.30599795,-15.85437000
8.30855795,-15.85437000
8.31111795,-15.85437000
8.31367795,-15.85437000
8.31623795,-15.85437000
8.31879795,-15.85437000
8.32135795,-15.85437000
8.32391795,-15.85437000
8.32647795,-15.85437000
8.32903795,-20.32533000
8.33159795,-15.85437000
8.33415795,-15.85437000
8.33671795,-15.85437000
8.33927795,-15.85437000
8.34183795,-15.85437000
8.34439795,-20.32533000
8.34695795,-15.85437000
8.34951795,-15.85437000
8.35207795,-20.32533000
8.35463795,-15.85437000
8.35719795,-20.32533000
8.35975795,-20.32533000
8.36231795,-20.32533000
8.36487795,-15.85437000
8.36743795,-20.32533000
8.36999795,-20.32533000
8.37255795,-20.32533000
8.37511795,-20.32533000
8.37767795,-20.32533000
8.38023795,-24.79629000
8.38279795,-24.79629000
8.38535795,-24.79629000
8.38791795,-24.79629000
8.39047795,-20.32533000
8.39303795,-24.79629000
8.39559795,-24.79629000
8.39815795,-24.79629000
8.40071795,-24.79629000
8.40327795,-24.79629000
8.40583795,-24.79629000
8.40839795,-24.79629000
8.41095795,-24.79629000
8.41351795,-24.79629000
8.41607795,-24.79629000
8.41863795,-24.79629000
8.42119795,-24.79629000
8.42375795,-29.26725000
8.42631795,-29.26725000
8.42887795,-29.26725000
8.43143795,-29.26725000
8.43399795,-29.26725000
8.43655795,-29.26725000
8.43911795,-29.26725000
8.44167795,-29.26725000
8.44423795,-29.26725000
8.44679795,-29.26725000
8.44935795,-29.26725000
8.45191795,-33.73821000
8.45447795,-33.73821000
8.45703795,-33.73821000
8.45959795,-33.73821000
8.46215795,-33.73821000
8.46471795,-33.73821000
8.46727795,-33.73821000
8.46983795,-33.73821000
8.47239795,-33.73821000
8.47495795,-33.73821000
8.47751795,-33.73821000
8.48007795,-33.73821000
8.48263795,-33.73821000
8.48519795,-33.73821000
8.48775795,-33.73821000
8.49031795,-33.73821000
8.49287795,-33.73821000
8.49543795,-33.73821000
8.49799795,-38.20917000
8.50055795,-38.20917000
8.50311795,-38.20917000
8.50567795,-38.20917000
8.50823795,-38.20917000
8.51079795,-42.68013000
8.51335795,-38.20917000
8.51591795,-38.20917000
8.51847795,-42.68013000
8.52103795,-42.68013000
8.52359795,-42.68013000
8.52615795,-42.68013000
8.52871795,-42.68013000
8.53127795,-42.68013000
8.53383795,-42.68013000
8.53639795,-42.68013000
8.53895795,-42.68013000
8.54151795,-42.68013000
8.54407795,-42.68013000
8.54663795,-42.68013000
8.54919795,-47.15109000
8.55175795,-42.68013000
8.55431795,-47.15109000
8.55687795,-47.15109000
8.55943795,-47.15109000
8.56199795,-51.62206000
8.56455795,-47.15109000
8.56711795,-51.62206000
8.56967795,-51.62206000
8.57223795,-51.62206000
8.57479795,-51.62206000
8.57735795,-51.62206000
8.57991795,-51.62206000
8.58247795,-51.62206000
8.58503795,-51.62206000
8.58759795,-51.62206000
8.59015795,-51.62206000
8.59271795,-51.62206000
8.59527795,-51.62206000
8.59783795,-51.62206000
8.60039795,-51.62206000
8.60295795,-51.62206000
8.60551795,-51.62206000
8.60807795,-51.62206000
8.61063795,-51.62206000
8.61319795,-51.62206000
8.61575795,-56.09302000
8.61831795,-56.09302000
8.62087795,-56.09302000
8.62343795,-51.62206000
8.62599795,-56.09302000
8.62855795,-56.09302000
8.63111795,-60.56398000
8.63367795,-60.56398000
8.63623795,-56.09302000
8.63879795,-60.56398000
8.64135795,-60.56398000
8.64391795,-60.56398000
8.64647795,-60.56398000
8.64903795,-60.56398000
8.65159795,-60.56398000
8.65415795,-60.56398000
8.65671795,-60.56398000
8.65927795,-60.56398000
8.66183795,-60.56398000
8.66439795,-60.56398000
8.66695795,-65.03493000
8.66951795,-60.56398000
8.67207795,-60.56398000
8.67463795,-65.03493000
8.67719795,-60.56398000
8.67975795,-60.56398000
8.68231795,-65.03493000
8.68487795,-65.03493000
8.68743795,-65.03493000
8.68999795,-65.03493000
8.69255795,-69.50591000
8.69511795,-65.03493000
8.69767795,-65.03493000
8.70023795,-65.03493000
8.70279795,-65.03493000
8.70535795,-65.03493000
8.70791795,-69.50591000
8.71047795,-65.03493000
8.71303795,-69.50591000
8.71559795,-69.50591000
8.71815795,-69.50591000
8.72071795,-69.50591000
8.72327795,-69.50591000
8.72583795,-69.50591000
8.72839795,-69.50591000
8.73095795,-69.50591000
8.73351795,-69.50591000
8.73607795,-69.50591000
8.73863795,-69.50591000
8.74119795,-69.50591000
8.74375795,-69.50591000
8.74631795,-69.50591000
8.74887795,-69.50591000
8.75143795,-69.50591000
8.75399795,-69.50591000
8.75655795,-69.50591000
8.75911795,-69.50591000
8.76167795,-69.50591000
8.76423795,-69.50591000
8.76679795,-73.99212000
8.76935795,-73.99212000
8.77191795,-73.99212000
8.77447795,-73.99212000
8.77703795,-73.99212000
8.77959795,-73.99212000
8.78215795,-73.99212000
8.78471795,-73.99212000
8.78727795,-73.99212000
8.78983795,-73.99212000
8.79239795,-73.99212000
8.79495795,-73.99212000
8.79751795,-73.99212000
8.80007795,-78.46308000
8.80263795,-73.99212000
8.80519795,-73.99212000
8.80775795,-78.46308000
8.81031795,-78.46308000
8.81287795,-78.46308000
8.81543795,-78.46308000
8.81799795,-78.46308000
8.82055795,-78.46308000
8.82311795,-78.46308000
8.82567795,-78.46308000
8.82823795,-78.46308000
8.83079795,-78.46308000
8.83335795,-78.46308000
8.83591795,-78.46308000
8.83847795,-78.46308000
8.84103795,-78.46308000
8.84359795,-78.46308000
8.84615795,-78.46308000
8.84871795,-78.46308000
8.85127795,-82.93404000
8.85383795,-78.46308000
8.85639795,-78.46308000
8.85895795,-78.46308000
8.86151795,-78.46308000
8.86407795,-82.93404000
8.86663795,-82.93404000
8.86919795,-82.93404000
8.87175795,-82.93404000
8.87431795,-82.93404000
8.87687795,-82.93404000
8.87943795,-82.93404000
8.88199795,-78.46308000
8.88455795,-82.93404000
8.88711795,-82.93404000
8.88967795,-82.93404000
8.89223795,-82.93404000
8.89479795,-82.93404000
8.89735795,-82.93404000
8.89991795,-87.40501000
8.90247795,-82.93404000
8.90503795,-87.40501000
8.90759795,-82.93404000
8.91015795,-82.93404000
8.91271795,-82.93404000
8.91527795,-82.93404000
8.91783795,-82.93404000
8.92039795,-82.93404000
8.92295795,-82.93404000
8.92551795,-87.40501000
8.92807795,-87.40501000
8.93063795,-87.40501000
8.93319795,-87.40501000
8.93575795,-87.40501000
8.93831795,-87.40501000
8.94087795,-87.40501000
8.94343795,-87.40501000
8.94599795,-87.40501000
8.94855795,-87.40501000
8.95111795,-87.40501000
8.95367795,-87.40501000
8.95623795,-87.40501000
8.95879795,-87.40501000
8.96135795,-87.40501000
8.96391795,-87.40501000
8.96647795,-87.40501000
8.96903795,-87.40501000
8.97159795,-87.40501000
8.97415795,-87.40501000
8.97671795,-87.40501000
8.97927795,-87.40501000
8.98183795,-87.40501000
8.98439795,-87.40501000
8.98695795,-87.40501000
8.98951795,-87.40501000
8.99207795,-87.40501000
8.99463795,-87.40501000
8.99719795,-87.40501000
8.99975795,-87.40501000
9.00231795,-87.40501000
9.00487795,-87.40501000
9.00743795,-87.40501000
9.00999795,-87.40501000
9.01255795,-87.40501000
9.01511795,-87.40501000
9.01767795,-87.40501000
9.02023795,-87.40501000
9.02279795,-87.40501000
9.02535795,-87.40501000
9.02791795,-87.40501000
9.03047795,-87.40501000
9.03303795,-87.40501000
9.03559795,-87.40501000
9.03815795,-87.40501000
9.04071795,-87.40501000
9.04327795,-87.40501000
9.04583795,-87.40501000
9.04839795,-87.40501000
9.05095795,-87.40501000
9.05351795,-87.40501000
9.05607795,-87.40501000
9.05863795,-87.40501000
9.06119795,-87.40501000
9.06375795,-87.40501000
9.06631795,-87.40501000
9.06887795,-87.40501000
9.07143795,-87.40501000
9.07399795,-87.40501000
9.07655795,-87.40501000
9.07911795,-87.40501000
9.08167795,-87.40501000
9.08423795,-87.40501000
9.08679795,-87.40501000
9.08935795,-87.40501000
9.09191795,-87.40501000
9.09447795,-87.40501000
9.09703795,-87.40501000
9.09959795,-87.40501000
9.10215795,-87.40501000
9.10471795,-87.40501000
9.10727795,-87.40501000
9.10983795,-87.40501000
9.11239795,-87.40501000
9.11495795,-87.40501000
9.11751795,-87.40501000
9.12007795,-87.40501000
9.12263795,-87.40501000
9.12519795,-87.40501000
9.12775795,-87.40501000
9.13031795,-87.40501000
9.13287795,-87.40501000
9.13543795,-87.40501000
9.13799795,-87.40501000
9.14055795,-87.40501000
9.14311795,-87.40501000
9.14567795,-87.40501000
9.14823795,-87.40501000
9.15079795,-87.40501000
9.15335795,-87.40501000
9.15591795,-87.40501000
9.15847795,-87.40501000
9.16103795,-87.40501000
9.16359795,-87.40501000
9.16615795,-87.40501000
9.16871795,-87.40501000
9.17127795,-87.40501000
9.17383795,-87.40501000
9.17639795,-87.40501000
9.17895795,-87.40501000
9.18151795,-87.40501000
9.18407795,-87.40501000
9.18663795,-87.40501000
9.18919795,-87.40501000
9.19175795,-87.40501000
9.19431795,-87.40501000
9.19687795,-87.40501000
9.19943795,-87.40501000
9.20199795,-82.93404000
9.20455795,-87.40501000
9.20711795,-87.40501000
9.20967795,-87.40501000
9.21223795,-87.40501000
9.21479795,-87.40501000
9.21735795,-87.40501000
9.21991795,-87.40501000
9.22247795,-87.40501000
9.22503795,-82.93404000
9.22759795,-87.40501000
9.23015795,-82.93404000
9.23271795,-87.40501000
9.23527795,-87.40501000
9.23783795,-87.40501000
9.24039795,-87.40501000
9.24295795,-87.40501000
9.24551795,-87.40501000
9.24807795,-87.40501000
9.25063795,-87.40501000
9.25319795,-87.40501000
9.25575795,-87.40501000
9.25831795,-82.93404000
9.26087795,-87.40501000
9.26343795,-87.40501000
9.26599795,-87.40501000
9.26855795,-87.40501000
9.27111795,-82.93404000
9.27367795,-87.40501000
9.27623795,-87.40501000
9.27879795,-87.40501000
9.28135795,-87.40501000
9.28391795,-87.40501000
9.28647795,-87.40501000
9.28903795,-82.93404000
9.29159795,-87.40501000
9.29415795,-82.93404000
9.29671795,-82.93404000
9.29927795,-82.93404000
9.30183795,-87.40501000
9.30439795,-82.93404000
9.30695795,-82.93404000
9.30951795,-82.93404000
9.31207795,-82.93404000
9.31463795,-87.40501000
9.31719795,-87.40501000
9.31975795,-87.40501000
9.32231795,-87.40501000
9.32487795,-82.93404000
9.32743795,-82.93404000
9.32999795,-82.93404000
9.33255795,-87.40501000
9.33511795,-87.40501000
9.33767795,-82.93404000
9.34023795,-82.93404000
9.34279795,-82.93404000
9.34535795,-87.40501000
9.34791795,-82.93404000
9.35047795,-87.40501000
9.35303795,-87.40501000
9.35559795,-82.93404000
9.35815795,-82.93404000
9.36071795,-82.93404000
9.36327795,-87.40501000
9.36583795,-87.40501000
9.36839795,-82.93404000
9.37095795,-87.40501000
9.37351795,-87.40501000
9.37607795,-82.93404000
9.37863795,-87.40501000
9.38119795,-87.40501000
9.38375795,-87.40501000
9.38631795,-82.93404000
9.38887795,-87.40501000
9.39143795,-87.40501000
9.39399795,-82.93404000
9.39655795,-87.40501000
9.39911795,-82.93404000
9.40167795,-87.40501000
9.40423795,-87.40501000
9.40679795,-87.40501000
9.40935795,-82.93404000
9.41191795,-87.40501000
9.41447795,-82.93404000
9.41703795,-82.93404000
9.41959795,-87.40501000
9.42215795,-82.93404000
9.42471795,-82.93404000
9.42727795,-82.93404000
9.42983795,-82.93404000
9.43239795,-82.93404000
9.43495795,-82.93404000
9.43751795,-87.40501000
9.44007795,-82.93404000
9.44263795,-87.40501000
9.44519795,-87.40501000
9.44775795,-87.40501000
9.45031795,-82.93404000
9.45287795,-87.40501000
9.45543795,-82.93404000
9.45799795,-82.93404000
9.46055795,-82.93404000
9.46311795,-82.93404000
9.46567795,-82.93404000
9.46823795,-82.93404000
9.47079795,-82.93404000
9.47335795,-87.40501000
9.47591795,-82.93404000
9.47847795,-82.93404000
9.48103795,-82.93404000
9.48359795,-82.93404000
9.48615795,-87.40501000
9.48871795,-82.93404000
9.49127795,-82.93404000
9.49383795,-82.93404000
9.49639795,-82.93404000
9.49895795,-82.93404000
9.50151795,-82.93404000
9.50407795,-82.93404000
9.50663795,-82.93404000
9.50919795,-82.93404000
9.51175795,-82.93404000
9.51431795,-82.93404000
9.51687795,-82.93404000
9.51943795,-82.93404000
9.52199795,-87.40501000
9.52455795,-82.93404000
9.52711795,-82.93404000
9.52967795,-82.93404000
9.53223795,-82.93404000
9.53479795,-82.93404000
9.53735795,-82.93404000
9.53991795,-82.93404000
9.54247795,-82.93404000
9.54503795,-82.93404000
9.54759795,-82.93404000
9.55015795,-82.93404000
9.55271795,-82.93404000
9.55527795,-82.93404000
9.55783795,-82.93404000
9.56039795,-82.93404000
9.56295795,-82.93404000
9.56551795,-82.93404000
9.56807795,-82.93404000
9.57063795,-82.93404000
9.57319795,-82.93404000
9.57575795,-82.93404000
9.57831795,-82.93404000
9.58087795,-82.93404000
9.58343795,-82.93404000
9.58599795,-82.93404000
9.58855795,-82.93404000
9.59111795,-82.93404000
9.59367795,-82.93404000
9.59623795,-82.93404000
9.59879795,-82.93404000
9.60135795,-82.93404000
9.60391795,-82.93404000
9.60647795,-82.93404000
9.60903795,-82.93404000
9.61159795,-82.93404000
9.61415795,-82.93404000
9.61671795,-82.93404000
9.61927795,-82.93404000
9.62183795,-82.93404000
9.62439795,-82.93404000
9.62695795,-82.93404000
9.62951795,-82.93404000
9.63207795,-82.93404000
9.63463795,-82.93404000
9.63719795,-82.93404000
9.63975795,-82.93404000
9.64231795,-82.93404000
9.64487794,-82.93404000
9.64743794,-82.93404000
9.64999794,-82.93404000
9.65255794,-82.93404000
9.65511794,-82.93404000
9.65767794,-82.93404000
9.66023794,-82.93404000
9.66279794,-82.93404000
9.66535794,-82.93404000
9.66791794,-82.93404000
9.67047794,-82.93404000
9.67303794,-82.93404000
9.67559794,-82.93404000
9.67815794,-82.93404000
9.68071794,-82.93404000
9.68327794,-82.93404000
9.68583794,-82.93404000
9.68839794,-82.93404000
9.69095794,-82.93404000
9.69351794,-82.93404000
9.69607794,-82.93404000
9.69863794,-78.46308000
9.70119794,-82.93404000
9.70375794,-82.93404000
9.70631794,-82.93404000
9.70887794,-82.93404000
9.71143794,-82.93404000
9.71399794,-82.93404000
9.71655794,-82.93404000
9.71911794,-82.93404000
9.72167794,-82.93404000
9.72423794,-82.93404000
9.72679794,-82.93404000
9.72935794,-82.93404000
9.73191794,-82.93404000
9.73447794,-82.93404000
9.73703794,-82.93404000
9.73959794,-82.93404000
9.74215794,-78.46308000
9.74471794,-78.46308000
9.74727794,-82.93404000
9.74983794,-82.93404000
9.75239794,-82.93404000
9.75495794,-82.93404000
9.75751794,-78.46308000
9.76007794,-82.93404000
9.76263794,-82.93404000
9.76519794,-78.46308000
9.76775794,-78.46308000
9.77031794,-82.93404000
9.77287794,-78.46308000
9.77543794,-82.93404000
9.77799794,-82.93404000
9.78055794,-78.46308000
9.78311794,-82.93404000
9.78567794,-78.46308000
9.78823794,-78.46308000
9.79079794,-78.46308000
9.79335794,-78.46308000
9.79591794,-78.46308000
9.79847794,-82.93404000
9.80103794,-78.46308000
9.80359794,-78.46308000
9.80615794,-78.46308000
9.80871794,-78.46308000
9.81127794,-78.46308000
9.81383794,-78.46308000
9.81639794,-82.93404000
9.81895794,-78.46308000
9.82151794,-78.46308000
9.82407794,-78.46308000
9.82663794,-78.46308000
9.82919794,-78.46308000
9.83175794,-78.46308000
9.83431794,-78.46308000
9.83687794,-78.46308000
9.83943794,-78.46308000
9.84199794,-78.46308000
9.84455794,-78.46308000
9.84711794,-78.46308000
9.84967794,-78.46308000
9.85223794,-78.46308000
9.85479794,-78.46308000
9.85735794,-78.46308000
9.85991794,-78.46308000
9.86247794,-78.46308000
9.86503794,-78.46308000
9.86759794,-78.46308000
9.87015794,-78.46308000
9.87271794,-78.46308000
9.87527794,-78.46308000
9.87783794,-78.46308000
9.88039794,-78.46308000
9.88295794,-78.46308000
9.88551794,-78.46308000
9.88807794,-78.46308000
9.89063794,-78.46308000
9.89319794,-78.46308000
9.89575794,-78.46308000
9.89831794,-78.46308000
9.90087794,-78.46308000
9.90343794,-78.46308000
9.90599794,-78.46308000
9.90855794,-78.46308000
9.91111794,-78.46308000
9.91367794,-78.46308000
9.91623794,-78.46308000
9.91879794,-78.46308000
9.92135794,-78.46308000
9.92391794,-78.46308000
9.92647794,-78.46308000
9.92903794,-78.46308000
9.93159794,-78.46308000
9.93415794,-78.46308000
9.93671794,-78.46308000
9.93927794,-78.46308000
9.94183794,-78.46308000
9.94439794,-78.46308000
9.94695794,-78.46308000
9.94951794,-78.46308000
9.95207794,-78.46308000
9.95463794,-78.46308000
9.95719794,-78.46308000
9.95975794,-78.46308000
9.96231794,-78.46308000
9.96487794,-78.46308000
9.96743794,-78.46308000
9.96999794,-78.46308000
9.97255794,-78.46308000
9.97511794,-78.46308000
9.97767794,-78.46308000
9.98023794,-78.46308000
9.98279794,-78.46308000
9.98535794,-78.46308000
9.98791794,-78.46308000
9.99047794,-78.46308000
9.99303794,-78.46308000
9.99559794,-78.46308000
9.99815794,-78.46308000
10.00071794,-78.46308000
10.00327794,-78.46308000
10.00583794,-78.46308000
10.00839794,-78.46308000
10.01095794,-78.46308000
10.01351794,-78.46308000
10.01607794,-78.46308000
10.01863794,-78.46308000
10.02119794,-78.46308000
10.02375794,-78.46308000
10.02631794,-78.46308000
10.02887794,-78.46308000
10.03143794,-78.46308000
10.03399794,-78.46308000
10.03655794,-78.46308000
10.03911794,-78.46308000
10.04167794,-78.46308000
10.04423794,-78.46308000
10.04679794,-78.46308000
10.04935794,-78.46308000
10.05191794,-78.46308000
10.05447794,-78.46308000
10.05703794,-78.46308000
10.05959794,-78.46308000
10.06215794,-73.99212000
10.06471794,-78.46308000
10.06727794,-78.46308000
10.06983794,-78.46308000
10.07239794,-78.46308000
10.07495794,-78.46308000
10.07751794,-78.46308000
10.08007794,-78.46308000
10.08263794,-73.99212000
10.08519794,-78.46308000
10.08775794,-78.46308000
10.09031794,-78.46308000
10.09287794,-78.46308000
10.09543794,-78.46308000
10.09799794,-73.99212000
10.10055794,-78.46308000
10.10311794,-73.99212000
10.10567794,-78.46308000
10.10823794,-78.46308000
10.11079794,-78.46308000
10.11335794,-73.99212000
10.11591794,-78.46308000
10.11847794,-78.46308000
10.12103794,-78.46308000
10.12359794,-78.46308000
10.12615794,-78.46308000
10.12871794,-78.46308000
10.13127794,-78.46308000
10.13383794,-78.46308000
10.13639794,-78.46308000
10.13895794,-78.46308000
10.14151794,-73.99212000
10.14407794,-78.46308000
10.14663794,-78.46308000
10.14919794,-78.46308000
10.15175794,-78.46308000
10.15431794,-73.99212000
10.15687794,-73.99212000
10.15943794,-78.46308000
10.16199794,-78.46308000
10.16455794,-78.46308000
10.16711794,-78.46308000
10.16967794,-78.46308000
10.17223794,-78.46308000
10.17479794,-78.46308000
10.17735794,-78.46308000
10.17991794,-78.46308000
10.18247794,-78.46308000
10.18503794,-73.99212000
10.18759794,-73.99212000
10.19015794,-73.99212000
10.19271794,-78.46308000
10.19527794,-78.46308000
10.19783794,-78.46308000
10.20039794,-73.99212000
10.20295794,-78.46308000
10.20551794,-78.46308000
10.20807794,-78.46308000
10.21063794,-73.99212000
10.21319794,-78.46308000
10.21575794,-78.46308000
10.21831794,-78.46308000
10.22087794,-73.99212000
10.22343794,-78.46308000
10.22599794,-73.99212000
10.22855794,-78.46308000
10.23111794,-78.46308000
10.23367794,-78.46308000
10.23623794,-78.46308000
10.23879794,-73.99212000
10.24135794,-73.99212000
10.24391794,-78.46308000
10.24647794,-73.99212000
10.24903794,-78.46308000
10.25159794,-78.46308000
10.25415794,-78.46308000
10.25671794,-73.99212000
10.25927794,-73.99212000
10.26183794,-78.46308000
10.26439794,-78.46308000
10.26695794,-73.99212000
10.26951794,-78.46308000
10.27207794,-73.99212000
10.27463794,-78.46308000
10.27719794,-78.46308000
10.27975794,-73.99212000
10.28231794,-73.99212000
10.28487794,-78.46308000
10.28743794,-78.46308000
10.28999794,-78.46308000
10.29255794,-78.46308000
10.29511794,-73.99212000
10.29767794,-73.99212000
10.30023794,-73.99212000
10.30279794,-73.99212000
10.30535794,-78.46308000
10.30791794,-78.46308000
10.31047794,-78.46308000
10.31303794,-73.99212000
10.31559794,-78.46308000
10.31815794,-73.99212000
10.32071794,-78.46308000
10.32327794,-73.99212000
10.32583794,-78.46308000
10.32839794,-73.99212000
10.33095794,-73.99212000
10.33351794,-78.46308000
10.33607794,-73.99212000
10.33863794,-78.46308000
10.34119794,-78.46308000
10.34375794,-73.99212000
10.34631794,-78.46308000
10.34887794,-73.99212000
10.35143794,-78.46308000
10.35399794,-78.46308000
10.35655794,-73.99212000
10.35911794,-78.46308000
10.36167794,-78.46308000
10.36423794,-78.46308000
10.36679794,-78.46308000
10.36935794,-78.46308000
10.37191794,-78.46308000
10.37447794,-78.46308000
10.37703794,-73.99212000
10.37959794,-78.46308000
10.38215794,-78.46308000
10.38471794,-78.46308000
10.38727794,-73.99212000
10.38983794,-78.46308000
10.39239794,-78.46308000
10.39495794,-78.46308000
10.39751794,-78.46308000
10.40007794,-78.46308000
10.40263794,-78.46308000
10.40519794,-78.46308000
10.40775794,-78.46308000
10.41031794,-78.46308000
10.41287794,-78.46308000
10.41543794,-78.46308000
10.41799794,-78.46308000
10.42055794,-78.46308000
10.42311794,-73.99212000
10.42567794,-73.99212000
10.42823794,-73.99212000
10.43079794,-78.46308000
10.43335794,-73.99212000
10.43591794,-78.46308000
10.43847794,-78.46308000
10.44103794,-78.46308000
10.44359794,-78.46308000
10.44615794,-78.46308000
10.44871794,-78.46308000
10.45127794,-78.46308000
10.45383794,-78.46308000
10.45639794,-78.46308000
10.45895794,-78.46308000
10.46151794,-78.46308000
10.46407794,-78.46308000
10.46663794,-78.46308000
10.46919794,-78.46308000
10.47175794,-78.46308000
10.47431794,-78.46308000
10.47687794,-78.46308000
10.47943794,-78.46308000
10.48199794,-73.99212000
10.48455794,-78.46308000
10.48711794,-78.46308000
10.48967794,-73.99212000
10.49223794,-78.46308000
10.49479794,-73.99212000
10.49735794,-78.46308000
10.49991794,-78.46308000
10.50247794,-73.99212000
10.50503794,-73.99212000
10.50759794,-78.46308000
10.51015794,-73.99212000
10.51271794,-78.46308000
10.51527794,-78.46308000
10.51783794,-78.46308000
10.52039794,-78.46308000
10.52295794,-73.99212000
10.52551794,-73.99212000
10.52807794,-78.46308000
10.53063794,-78.46308000
10.53319794,-78.46308000
10.53575794,-78.46308000
10.53831794,-78.46308000
10.54087794,-78.46308000
10.54343794,-78.46308000
10.54599794,-78.46308000
10.54855794,-73.99212000
10.55111794,-73.99212000
10.55367794,-78.46308000
10.55623794,-78.46308000
10.55879794,-78.46308000
10.56135794,-73.99212000
10.56391794,-78.46308000
10.56647794,-78.46308000
10.56903794,-78.46308000
10.57159794,-78.46308000
10.57415794,-78.46308000
10.57671794,-73.99212000
10.57927794,-73.99212000
10.58183794,-73.99212000
10.58439794,-78.46308000
10.58695794,-78.46308000
10.58951794,-78.46308000
10.59207794,-78.46308000
10.59463794,-78.46308000
10.59719794,-78.46308000
10.59975794,-78.46308000
10.60231794,-78.46308000
10.60487794,-78.46308000
10.60743794,-78.46308000
10.60999794,-73.99212000
10.61255794,-78.46308000
10.61511794,-78.46308000
10.61767794,-73.99212000
10.62023794,-78.46308000
10.62279794,-78.46308000
10.62535794,-78.46308000
10.62791794,-78.46308000
10.63047794,-78.46308000
10.63303794,-78.46308000
10.63559794,-78.46308000
10.63815794,-78.46308000
10.64071794,-78.46308000
10.64327794,-78.46308000
10.64583794,-78.46308000
10.64839794,-78.46308000
10.65095794,-78.46308000
10.65351794,-78.46308000
10.65607794,-78.46308000
10.65863794,-78.46308000
10.66119794,-78.46308000
10.66375794,-78.46308000
10.66631794,-78.46308000
10.66887794,-78.46308000
10.67143794,-78.46308000
10.67399794,-78.46308000
10.67655794,-78.46308000
10.67911794,-73.99212000
10.68167794,-78.46308000
10.68423794,-78.46308000
10.68679794,-78.46308000
10.68935794,-73.99212000
10.69191794,-78.46308000
10.69447794,-78.46308000
10.69703794,-78.46308000
10.69959794,-78.46308000
10.70215794,-78.46308000
10.70471794,-78.46308000
10.70727794,-78.46308000
10.70983794,-78.46308000
10.71239794,-78.46308000
10.71495794,-78.46308000
10.71751794,-78.46308000
10.72007794,-78.46308000
10.72263794,-78.46308000
10.72519794,-78.46308000
10.72775794,-78.46308000
10.73031794,-78.46308000
10.73287794,-78.46308000
10.73543794,-73.99212000
10.73799794,-78.46308000
10.74055794,-78.46308000
10.74311794,-78.46308000
10.74567794,-78.46308000
10.74823794,-78.46308000
10.75079794,-78.46308000
10.75335794,-78.46308000
10.75591794,-78.46308000
10.75847794,-78.46308000
10.76103794,-78.46308000
10.76359794,-78.46308000
10.76615794,-78.46308000
10.76871794,-78.46308000
10.77127794,-78.46308000
10.77383794,-78.46308000
10.77639794,-78.46308000
10.77895794,-78.46308000
10.78151794,-78.46308000
10.78407794,-78.46308000
10.78663794,-78.46308000
10.78919794,-78.46308000
10.79175794,-78.46308000
10.79431794,-78.46308000
10.79687794,-78.46308000
10.79943794,-78.46308000
10.80199794,-78.46308000
10.80455794,-78.46308000
10.80711794,-78.46308000
10.80967794,-78.46308000
10.81223794,-78.46308000
10.81479794,-78.46308000
10.81735794,-78.46308000
10.81991794,-78.46308000
10.82247794,-78.46308000
10.82503794,-78.46308000
10.82759794,-78.46308000
10.83015794,-78.46308000
10.83271794,-78.46308000
10.83527794,-78.46308000
10.83783794,-78.46308000
10.84039794,-78.46308000
10.84295794,-78.46308000
10.84551794,-78.46308000
10.84807794,-78.46308000
10.85063794,-78.46308000
10.85319794,-78.46308000
10.85575794,-78.46308000
10.85831794,-78.46308000
10.86087794,-78.46308000
10.86343794,-78.46308000
10.86599794,-78.46308000
10.86855794,-78.46308000
10.87111794,-78.46308000
10.87367794,-78.46308000
10.87623794,-78.46308000
10.87879794,-78.46308000
10.88135794,-78.46308000
10.88391794,-78.46308000
10.88647794,-78.46308000
10.88903794,-78.46308000
10.89159794,-78.46308000
10.89415794,-78.46308000
10.89671794,-78.46308000
10.89927794,-78.46308000
10.90183794,-78.46308000
10.90439794,-78.46308000
10.90695794,-78.46308000
10.90951794,-78.46308000
10.91207794,-78.46308000
10.91463794,-78.46308000
10.91719794,-78.46308000
10.91975794,-78.46308000
10.92231794,-78.46308000
10.92487794,-78.46308000
10.92743794,-78.46308000
10.92999794,-78.46308000
10.93255794,-78.46308000
10.93511794,-78.46308000
10.93767794,-78.46308000
10.94023794,-78.46308000
10.94279794,-78.46308000
10.94535794,-78.46308000
10.94791794,-78.46308000
10.95047794,-78.46308000
10.95303794,-78.46308000
10.95559794,-78.46308000
10.95815794,-78.46308000
10.96071794,-78.46308000
10.96327794,-78.46308000
10.96583794,-78.46308000
10.96839794,-78.46308000
10.97095794,-78.46308000
10.97351794,-78.46308000
10.97607794,-78.46308000
10.97863794,-78.46308000
10.98119794,-78.46308000
10.98375794,-78.46308000
10.98631794,-78.46308000
10.98887794,-78.46308000
10.99143794,-78.46308000
10.99399794,-78.46308000
10.99655794,-78.46308000
10.99911794,-78.46308000
11.00167794,-78.46308000
11.00423794,-78.46308000
11.00679794,-78.46308000
11.00935794,-78.46308000
11.01191794,-78.46308000
11.01447794,-78.46308000
11.01703794,-78.46308000
11.01959794,-78.46308000
11.02215794,-78.46308000
11.02471794,-78.46308000
11.02727794,-78.46308000
11.02983794,-78.46308000
11.03239794,-78.46308000
11.03495794,-78.46308000
11.03751794,-78.46308000
11.04007794,-78.46308000
11.04263794,-78.46308000
11.04519794,-78.46308000
11.04775794,-78.46308000
11.05031794,-78.46308000
11.05287794,-78.46308000
11.05543794,-78.46308000
11.05799794,-78.46308000
11.06055794,-78.46308000
11.06311794,-78.46308000
11.06567794,-78.46308000
11.06823794,-78.46308000
11.07079794,-78.46308000
11.07335794,-78.46308000
11.07591794,-78.46308000
11.07847794,-78.46308000
11.08103794,-78.46308000
11.08359794,-78.46308000
11.08615794,-78.46308000
11.08871794,-78.46308000
11.09127794,-78.46308000
11.09383794,-78.46308000
11.09639794,-78.46308000
11.09895794,-78.46308000
11.10151794,-78.46308000
11.10407794,-78.46308000
11.10663794,-78.46308000
11.10919794,-78.46308000
11.11175794,-78.46308000
11.11431794,-78.46308000
11.11687794,-78.46308000
11.11943794,-78.46308000
11.12199794,-78.46308000
11.12455794,-78.46308000
11.12711794,-78.46308000
11.12967794,-78.46308000
11.13223794,-78.46308000
11.13479794,-78.46308000
11.13735794,-78.46308000
11.13991794,-78.46308000
11.14247794,-78.46308000
11.14503794,-78.46308000
11.14759794,-78.46308000
11.15015794,-78.46308000
11.15271794,-78.46308000
11.15527794,-78.46308000
11.15783794,-78.46308000
11.16039794,-78.46308000
11.16295794,-78.46308000
11.16551794,-78.46308000
11.16807794,-78.46308000
11.17063794,-78.46308000
11.17319794,-78.46308000
11.17575794,-78.46308000
11.17831794,-78.46308000
11.18087794,-78.46308000
11.18343794,-78.46308000
11.18599794,-78.46308000
11.18855794,-78.46308000
11.19111794,-78.46308000
11.19367794,-78.46308000
11.19623794,-78.46308000
11.19879794,-78.46308000
11.20135794,-78.46308000
11.20391794,-78.46308000
11.20647794,-78.46308000
11.20903794,-78.46308000
11.21159794,-78.46308000
11.21415794,-78.46308000
11.21671794,-78.46308000
11.21927794,-78.46308000
11.22183794,-78.46308000
11.22439794,-78.46308000
11.22695794,-78.46308000
11.22951794,-78.46308000
11.23207794,-78.46308000
11.23463794,-78.46308000
11.23719794,-78.46308000
11.23975794,-78.46308000
11.24231794,-78.46308000
11.24487794,-78.46308000
11.24743794,-78.46308000
11.24999794,-78.46308000
11.25255794,-78.46308000
11.25511794,-78.46308000
11.25767794,-78.46308000
11.26023794,-78.46308000
11.26279794,-78.46308000
11.26535794,-78.46308000
11.26791794,-78.46308000
11.27047794,-78.46308000
11.27303794,-78.46308000
11.27559794,-78.46308000
11.27815794,-78.46308000
11.28071794,-78.46308000
11.28327794,-78.46308000
11.28583794,-78.46308000
11.28839794,-78.46308000
11.29095793,-78.46308000
11.29351793,-78.46308000
11.29607793,-78.46308000
11.29863793,-78.46308000
11.30119793,-78.46308000
11.30375793,-78.46308000
11.30631793,-78.46308000
11.30887793,-78.46308000
11.31143793,-78.46308000
11.31399793,-78.46308000
11.31655793,-78.46308000
11.31911793,-78.46308000
11.32167793,-78.46308000
11.32423793,-78.46308000
11.32679793,-78.46308000
11.32935793,-78.46308000
11.33191793,-78.46308000
11.33447793,-78.46308000
11.33703793,-78.46308000
11.33959793,-78.46308000
11.34215793,-78.46308000
11.34471793,-78.46308000
11.34727793,-78.46308000
11.34983793,-78.46308000
11.35239793,-78.46308000
11.35495793,-78.46308000
11.35751793,-78.46308000
11.36007793,-78.46308000
11.36263793,-78.46308000
11.36519793,-78.46308000
11.36775793,-78.46308000
11.37031793,-78.46308000
11.37287793,-78.46308000
11.37543793,-78.46308000
11.37799793,-78.46308000
11.38055793,-78.46308000
11.38311793,-78.46308000
11.38567793,-78.46308000
11.38823793,-78.46308000
11.39079793,-78.46308000
11.39335793,-78.46308000
11.39591793,-78.46308000
11.39847793,-78.46308000
11.40103793,-78.46308000
11.40359793,-78.46308000
11.40615793,-78.46308000
11.40871793,-78.46308000
11.41127793,-78.46308000
11.41383793,-78.46308000
11.41639793,-78.46308000
11.41895793,-78.46308000
11.42151793,-78.46308000
11.42407793,-78.46308000
11.42663793,-78.46308000
11.42919793,-78.46308000
11.43175793,-78.46308000
11.43431793,-78.46308000
11.43687793,-78.46308000
11.43943793,-78.46308000
11.44199793,-78.46308000
11.44455793,-78.46308000
11.44711793,-78.46308000
11.44967793,-78.46308000
11.45223793,-78.46308000
11.45479793,-78.46308000
11.45735793,-78.46308000
11.45991793,-78.46308000
11.46247793,-78.46308000
11.46503793,-78.46308000
11.46759793,-78.46308000
11.47015793,-78.46308000
11.47271793,-78.46308000
11.47527793,-78.46308000
11.47783793,-78.46308000
11.48039793,-78.46308000
11.48295793,-78.46308000
11.48551793,-78.46308000
11.48807793,-78.46308000
11.49063793,-78.46308000
11.49319793,-78.46308000
11.49575793,-78.46308000
11.49831793,-78.46308000
11.50087793,-78.46308000
11.50343793,-78.46308000
11.50599793,-78.46308000
11.50855793,-78.46308000
11.51111793,-78.46308000
11.51367793,-78.46308000
11.51623793,-78.46308000
11.51879793,-78.46308000
11.52135793,-78.46308000
11.52391793,-78.46308000
11.52647793,-78.46308000
11.52903793,-78.46308000
11.53159793,-78.46308000
11.53415793,-78.46308000
11.53671793,-78.46308000
11.53927793,-78.46308000
11.54183793,-78.46308000
11.54439793,-78.46308000
11.54695793,-78.46308000
11.54951793,-78.46308000
11.55207793,-78.46308000
11.55463793,-78.46308000
11.55719793,-78.46308000
11.55975793,-78.46308000
11.56231793,-78.46308000
11.56487793,-78.46308000
11.56743793,-78.46308000
11.56999793,-78.46308000
11.57255793,-78.46308000
11.57511793,-78.46308000
11.57767793,-78.46308000
11.58023793,-78.46308000
11.58279793,-78.46308000
11.58535793,-78.46308000
11.58791793,-78.46308000
11.59047793,-78.46308000
11.59303793,-78.46308000
11.59559793,-78.46308000
11.59815793,-78.46308000
11.60071793,-78.46308000
11.60327793,-78.46308000
11.60583793,-78.46308000
11.60839793,-78.46308000
11.61095793,-78.46308000
11.61351793,-78.46308000
11.61607793,-78.46308000
11.61863793,-78.46308000
11.62119793,-78.46308000
11.62375793,-78.46308000
11.62631793,-78.46308000
11.62887793,-73.99212000
11.63143793,-78.46308000
11.63399793,-78.46308000
11.63655793,-78.46308000
11.63911793,-78.46308000
11.64167793,-73.99212000
11.64423793,-78.46308000
11.64679793,-78.46308000
11.64935793,-78.46308000
11.65191793,-78.46308000
11.65447793,-78.46308000
11.65703793,-78.46308000
11.65959793,-78.46308000
11.66215793,-78.46308000
11.66471793,-78.46308000
11.66727793,-78.46308000
11.66983793,-78.46308000
11.67239793,-78.46308000
11.67495793,-73.99212000
11.67751793,-78.46308000
11.68007793,-78.46308000
11.68263793,-78.46308000
11.68519793,-78.46308000
11.68775793,-78.46308000
11.69031793,-78.46308000
11.69287793,-78.46308000
11.69543793,-78.46308000
11.69799793,-78.46308000
11.70055793,-78.46308000
11.70311793,-78.46308000
11.70567793,-78.46308000
11.70823793,-78.46308000
11.71079793,-78.46308000
11.71335793,-78.46308000
11.71591793,-78.46308000
11.71847793,-78.46308000
11.72103793,-78.46308000
11.72359793,-73.99212000
11.72615793,-78.46308000
11.72871793,-78.46308000
11.73127793,-78.46308000
11.73383793,-73.99212000
11.73639793,-78.46308000
11.73895793,-73.99212000
11.74151793,-78.46308000
11.74407793,-78.46308000
11.74663793,-73.99212000
11.74919793,-78.46308000
11.75175793,-73.99212000
11.75431793,-78.46308000
11.75687793,-73.99212000
11.75943793,-73.99212000
11.76199793,-78.46308000
11.76455793,-73.99212000
11.76711793,-78.46308000
11.76967793,-73.99212000
11.77223793,-78.46308000
11.77479793,-73.99212000
11.77735793,-78.46308000
11.77991793,-78.46308000
11.78247793,-78.46308000
11.78503793,-78.46308000
11.78759793,-78.46308000
11.79015793,-78.46308000
11.79271793,-78.46308000
11.79527793,-78.46308000
11.79783793,-78.46308000
11.80039793,-78.46308000
11.80295793,-78.46308000
11.80551793,-73.99212000
11.80807793,-78.46308000
11.81063793,-78.46308000
11.81319793,-78.46308000
11.81575793,-78.46308000
11.81831793,-78.46308000
11.82087793,-78.46308000
11.82343793,-78.46308000
11.82599793,-73.99212000
11.82855793,-73.99212000
11.83111793,-78.46308000
11.83367793,-73.99212000
11.83623793,-78.46308000
11.83879793,-78.46308000
11.84135793,-78.46308000
11.84391793,-78.46308000
11.84647793,-78.46308000
11.84903793,-78.46308000
11.85159793,-78.46308000
11.85415793,-78.46308000
11.85671793,-78.46308000
11.85927793,-78.46308000
11.86183793,-78.46308000
11.86439793,-78.46308000
11.86695793,-78.46308000
11.86951793,-78.46308000
11.87207793,-78.46308000
11.87463793,-78.46308000
11.87719793,-78.46308000
11.87975793,-78.46308000
11.88231793,-78.46308000
11.88487793,-78.46308000
11.88743793,-73.99212000
11.88999793,-73.99212000
11.89255793,-78.46308000
11.89511793,-78.46308000
11.89767793,-73.99212000
11.90023793,-78.46308000
11.90279793,-78.46308000
11.90535793,-78.46308000
11.90791793,-73.99212000
11.91047793,-78.46308000
11.91303793,-78.46308000
11.91559793,-78.46308000
11.91815793,-78.46308000
11.92071793,-73.99212000
11.92327793,-78.46308000
11.92583793,-78.46308000
11.92839793,-78.46308000
11.93095793,-73.99212000
11.93351793,-78.46308000
11.93607793,-78.46308000
11.93863793,-78.46308000
11.94119793,-73.99212000
11.94375793,-73.99212000
11.94631793,-78.46308000
11.94887793,-78.46308000
11.95143793,-73.99212000
11.95399793,-73.99212000
11.95655793,-73.99212000
11.95911793,-78.46308000
11.96167793,-78.46308000
11.96423793,-78.46308000
11.96679793,-73.99212000
11.96935793,-73.99212000
11.97191793,-73.99212000
11.97447793,-78.46308000
11.97703793,-73.99212000
11.97959793,-73.99212000
11.98215793,-78.46308000
11.98471793,-78.46308000
11.98727793,-78.46308000
11.98983793,-73.99212000
11.99239793,-73.99212000
11.99495793,-73.99212000
11.99751793,-78.46308000
12.00007793,-78.46308000
12.00263793,-78.46308000
12.00519793,-78.46308000
12.00775793,-78.46308000
12.01031793,-73.99212000
12.01287793,-73.99212000
12.01543793,-78.46308000
12.01799793,-78.46308000
12.02055793,-73.99212000
12.02311793,-78.46308000
12.02567793,-73.99212000
12.02823793,-73.99212000
12.03079793,-78.46308000
12.03335793,-73.99212000
12.03591793,-78.46308000
12.03847793,-73.99212000
12.04103793,-73.99212000
12.04359793,-73.99212000
12.04615793,-73.99212000
12.04871793,-73.99212000
12.05127793,-73.99212000
12.05383793,-73.99212000
12.05639793,-78.46308000
12.05895793,-73.99212000
12.06151793,-78.46308000
12.06407793,-73.99212000
12.06663793,-78.46308000
12.06919793,-73.99212000
12.07175793,-73.99212000
12.07431793,-78.46308000
12.07687793,-78.46308000
12.07943793,-78.46308000
12.08199793,-73.99212000
12.08455793,-73.99212000
12.08711793,-78.46308000
12.08967793,-78.46308000
12.09223793,-73.99212000
12.09479793,-78.46308000
12.09735793,-78.46308000
12.09991793,-73.99212000
12.10247793,-78.46308000
12.10503793,-78.46308000
12.10759793,-78.46308000
12.11015793,-78.46308000
12.11271793,-73.99212000
12.11527793,-73.99212000
12.11783793,-78.46308000
12.12039793,-73.99212000
12.12295793,-73.99212000
12.12551793,-73.99212000
12.12807793,-78.46308000
12.13063793,-78.46308000
12.13319793,-78.46308000
12.13575793,-78.46308000
12.13831793,-78.46308000
12.14087793,-78.46308000
12.14343793,-78.46308000
12.14599793,-73.99212000
12.14855793,-78.46308000
12.15111793,-78.46308000
12.15367793,-78.46308000
12.15623793,-78.46308000
12.15879793,-73.99212000
12.16135793,-78.46308000
12.16391793,-78.46308000
12.16647793,-78.46308000
12.16903793,-78.46308000
12.17159793,-78.46308000
12.17415793,-78.46308000
12.17671793,-78.46308000
12.17927793,-78.46308000
12.18183793,-73.99212000
12.18439793,-78.46308000
12.18695793,-78.46308000
12.18951793,-78.46308000
12.19207793,-78.46308000
12.19463793,-78.46308000
12.19719793,-78.46308000
12.19975793,-78.46308000
12.20231793,-78.46308000
12.20487793,-78.46308000
12.20743793,-78.46308000
12.20999793,-78.46308000
12.21255793,-78.46308000
12.21511793,-78.46308000
12.21767793,-78.46308000
12.22023793,-73.99212000
12.22279793,-73.99212000
12.22535793,-73.99212000
12.22791793,-73.99212000
12.23047793,-78.46308000
12.23303793,-78.46308000
12.23559793,-78.46308000
12.23815793,-78.46308000
12.24071793,-78.46308000
12.24327793,-78.46308000
12.24583793,-78.46308000
12.24839793,-78.46308000
12.25095793,-73.99212000
12.25351793,-78.46308000
12.25607793,-73.99212000
12.25863793,-78.46308000
12.26119793,-78.46308000
12.26375793,-78.46308000
12.26631793,-78.46308000
12.26887793,-73.99212000
12.27143793,-78.46308000
12.27399793,-78.46308000
12.27655793,-78.46308000
12.27911793,-73.99212000
12.28167793,-78.46308000
12.28423793,-78.46308000
12.28679793,-73.99212000
12.28935793,-78.46308000
12.29191793,-73.99212000
12.29447793,-73.99212000
12.29703793,-73.99212000
12.29959793,-78.46308000
12.30215793,-73.99212000
12.30471793,-73.99212000
12.30727793,-73.99212000
12.30983793,-73.99212000
12.31239793,-73.99212000
12.31495793,-73.99212000
12.31751793,-78.46308000
12.32007793,-73.99212000
12.32263793,-73.99212000
12.32519793,-73.99212000
12.32775793,-78.46308000
12.33031793,-73.99212000
12.33287793,-78.46308000
12.33543793,-78.46308000
12.33799793,-73.99212000
12.34055793,-73.99212000
12.34311793,-73.99212000
12.34567793,-73.99212000
12.34823793,-73.99212000
12.35079793,-78.46308000
12.35335793,-73.99212000
12.35591793,-78.46308000
12.35847793,-73.99212000
12.36103793,-73.99212000
12.36359793,-73.99212000
12.36615793,-78.46308000
12.36871793,-78.46308000
12.37127793,-73.99212000
12.37383793,-73.99212000
12.37639793,-73.99212000
12.37895793,-73.99212000
12.38151793,-73.99212000
12.38407793,-69.50591000
12.38663793,-78.46308000
12.38919793,-73.99212000
12.39175793,-73.99212000
12.39431793,-73.99212000
12.39687793,-73.99212000
12.39943793,-78.46308000
12.40199793,-78.46308000
12.40455793,-73.99212000
12.40711793,-73.99212000
12.40967793,-78.46308000
12.41223793,-78.46308000
12.41479793,-78.46308000
12.41735793,-73.99212000
12.41991793,-73.99212000
12.42247793,-78.46308000
12.42503793,-78.46308000
12.42759793,-78.46308000
12.43015793,-78.46308000
12.43271793,-78.46308000
12.43527793,-78.46308000
12.43783793,-73.99212000
12.44039793,-78.46308000
12.44295793,-78.46308000
12.44551793,-78.46308000
12.44807793,-78.46308000
12.45063793,-78.46308000
12.45319793,-78.46308000
12.45575793,-78.46308000
12.45831793,-73.99212000
12.46087793,-78.46308000
12.46343793,-78.46308000
12.46599793,-78.46308000
12.46855793,-78.46308000
12.47111793,-78.46308000
12.47367793,-78.46308000
12.47623793,-78.46308000
12.47879793,-78.46308000
12.48135793,-73.99212000
12.48391793,-78.46308000
12.48647793,-78.46308000
12.48903793,-78.46308000
12.49159793,-78.46308000
12.49415793,-78.46308000
12.49671793,-78.46308000
12.49927793,-73.99212000
12.50183793,-78.46308000
12.50439793,-78.46308000
12.50695793,-78.46308000
12.50951793,-78.46308000
12.51207793,-78.46308000
12.51463793,-78.46308000
12.51719793,-78.46308000
12.51975793,-73.99212000
12.52231793,-78.46308000
12.52487793,-78.46308000
12.52743793,-78.46308000
12.52999793,-78.46308000
12.53255793,-78.46308000
12.53511793,-78.46308000
12.53767793,-78.46308000
12.54023793,-78.46308000
12.54279793,-78.46308000
12.54535793,-78.46308000
12.54791793,-78.46308000
12.55047793,-78.46308000
12.55303793,-78.46308000
12.55559793,-78.46308000
12.55815793,-78.46308000
12.56071793,-78.46308000
12.56327793,-78.46308000
12.56583793,-78.46308000
12.56839793,-78.46308000
12.57095793,-78.46308000
12.57351793,-78.46308000
12.57607793,-78.46308000
12.57863793,-78.46308000
12.58119793,-78.46308000
12.58375793,-78.46308000
12.58631793,-78.46308000
12.58887793,-78.46308000
12.59143793,-78.46308000
12.59399793,-78.46308000
12.59655793,-78.46308000
12.59911793,-78.46308000
12.60167793,-78.46308000
12.60423793,-78.46308000
12.60679793,-78.46308000
12.60935793,-78.46308000
12.61191793,-78.46308000
12.61447793,-78.46308000
12.61703793,-78.46308000
12.61959793,-78.46308000
12.62215793,-78.46308000
12.62471793,-78.46308000
12.62727793,-78.46308000
12.62983793,-78.46308000
12.63239793,-78.46308000
12.63495793,-78.46308000
12.63751793,-78.46308000
12.64007793,-78.46308000
12.64263793,-78.46308000
12.64519793,-78.46308000
12.64775793,-78.46308000
12.65031793,-78.46308000
12.65287793,-78.46308000
12.65543793,-78.46308000
12.65799793,-78.46308000
12.66055793,-78.46308000
12.66311793,-78.46308000
12.66567793,-78.46308000
12.66823793,-78.46308000
12.67079793,-78.46308000
12.67335793,-78.46308000
12.67591793,-73.99212000
12.67847793,-78.46308000
12.68103793,-78.46308000
12.68359793,-78.46308000
12.68615793,-78.46308000
12.68871793,-78.46308000
12.69127793,-78.46308000
12.69383793,-78.46308000
12.69639793,-78.46308000
12.69895793,-78.46308000
12.70151793,-78.46308000
12.70407793,-78.46308000
12.70663793,-78.46308000
12.70919793,-78.46308000
12.71175793,-78.46308000
12.71431793,-78.46308000
12.71687793,-78.46308000
12.71943793,-78.46308000
12.72199793,-78.46308000
12.72455793,-78.46308000
12.72711793,-78.46308000
12.72967793,-78.46308000
12.73223793,-78.46308000
12.73479793,-78.46308000
12.73735793,-78.46308000
12.73991793,-78.46308000
12.74247793,-78.46308000
12.74503793,-78.46308000
12.74759793,-78.46308000
12.75015793,-78.46308000
12.75271793,-78.46308000
12.75527793,-78.46308000
12.75783793,-78.46308000
12.76039793,-78.46308000
12.76295793,-78.46308000
12.76551793,-78.46308000
12.76807793,-78.46308000
12.77063793,-78.46308000
12.77319793,-78.46308000
12.77575793,-78.46308000
12.77831793,-78.46308000
12.78087793,-78.46308000
12.78343793,-73.99212000
12.78599793,-78.46308000
12.78855793,-78.46308000
12.79111793,-78.46308000
12.79367793,-78.46308000
12.79623793,-73.99212000
12.79879793,-78.46308000
12.80135793,-78.46308000
12.80391793,-78.46308000
12.80647793,-78.46308000
12.80903793,-78.46308000
12.81159793,-78.46308000
12.81415793,-78.46308000
12.81671793,-78.46308000
12.81927793,-78.46308000
12.82183793,-78.46308000
12.82439793,-78.46308000
12.82695793,-78.46308000
12.82951793,-78.46308000
12.83207793,-78.46308000
12.83463793,-78.46308000
12.83719793,-73.99212000
12.83975793,-78.46308000
12.84231793,-78.46308000
12.84487793,-73.99212000
12.84743793,-73.99212000
12.84999793,-78.46308000
12.85255793,-73.99212000
12.85511793,-73.99212000
12.85767793,-78.46308000
12.86023793,-73.99212000
12.86279793,-78.46308000
12.86535793,-73.99212000
12.86791793,-78.46308000
12.87047793,-73.99212000
12.87303793,-78.46308000
12.87559793,-78.46308000
12.87815793,-78.46308000
12.88071793,-78.46308000
12.88327793,-73.99212000
12.88583793,-78.46308000
12.88839793,-73.99212000
12.89095793,-73.99212000
12.89351793,-78.46308000
12.89607793,-73.99212000
12.89863793,-73.99212000
12.90119793,-73.99212000
12.90375793,-73.99212000
12.90631793,-73.99212000
12.90887793,-73.99212000
12.91143793,-78.46308000
12.91399793,-73.99212000
12.91655793,-78.46308000
12.91911793,-73.99212000
12.92167793,-78.46308000
12.92423793,-73.99212000
12.92679793,-73.99212000
12.92935793,-78.46308000
12.93191793,-73.99212000
12.93447793,-73.99212000
12.93703792,-73.99212000
12.93959792,-78.46308000
12.94215792,-78.46308000
12.94471792,-73.99212000
12.94727792,-73.99212000
12.94983792,-73.99212000
12.95239792,-73.99212000
12.95495792,-73.99212000
12.95751792,-73.99212000
12.96007792,-78.46308000
12.96263792,-78.46308000
12.96519792,-73.99212000
12.96775792,-78.46308000
12.97031792,-78.46308000
12.97287792,-73.99212000
12.97543792,-73.99212000
12.97799792,-78.46308000
12.98055792,-78.46308000
12.98311792,-73.99212000
12.98567792,-78.46308000
12.98823792,-78.46308000
12.99079792,-73.99212000
12.99335792,-73.99212000
12.99591792,-73.99212000
12.99847792,-78.46308000
13.00103792,-73.99212000
13.00359792,-73.99212000
13.00615792,-73.99212000
13.00871792,-73.99212000
13.01127792,-78.46308000
13.01383792,-73.99212000
13.01639792,-73.99212000
13.01895792,-78.46308000
13.02151792,-78.46308000
13.02407792,-73.99212000
13.02663792,-78.46308000
13.02919792,-73.99212000
13.03175792,-78.46308000
13.03431792,-73.99212000
13.03687792,-78.46308000
13.03943792,-78.46308000
13.04199792,-73.99212000
13.04455792,-78.46308000
13.04711792,-73.99212000
13.04967792,-78.46308000
13.05223792,-73.99212000
13.05479792,-78.46308000
13.05735792,-73.99212000
13.05991792,-73.99212000
13.06247792,-78.46308000
13.06503792,-78.46308000
13.06759792,-73.99212000
13.07015792,-73.99212000
13.07271792,-78.46308000
13.07527792,-78.46308000
13.07783792,-73.99212000
13.08039792,-73.99212000
13.08295792,-78.46308000
13.08551792,-78.46308000
13.08807792,-73.99212000
13.09063792,-73.99212000
13.09319792,-73.99212000
13.09575792,-78.46308000
13.09831792,-73.99212000
13.10087792,-73.99212000
13.10343792,-78.46308000
13.10599792,-73.99212000
13.10855792,-78.46308000
13.11111792,-78.46308000
13.11367792,-78.46308000
13.11623792,-73.99212000
13.11879792,-73.99212000
13.12135792,-73.99212000
13.12391792,-78.46308000
13.12647792,-73.99212000
13.12903792,-73.99212000
13.13159792,-78.46308000
13.13415792,-78.46308000
13.13671792,-78.46308000
13.13927792,-78.46308000
13.14183792,-78.46308000
13.14439792,-73.99212000
13.14695792,-78.46308000
13.14951792,-78.46308000
13.15207792,-78.46308000
13.15463792,-78.46308000
13.15719792,-73.99212000
13.15975792,-78.46308000
13.16231792,-78.46308000
13.16487792,-73.99212000
13.16743792,-78.46308000
13.16999792,-78.46308000
13.17255792,-78.46308000
13.17511792,-78.46308000
13.17767792,-78.46308000
13.18023792,-78.46308000
13.18279792,-78.46308000
13.18535792,-78.46308000
13.18791792,-78.46308000
13.19047792,-78.46308000
13.19303792,-78.46308000
13.19559792,-78.46308000
13.19815792,-78.46308000
13.20071792,-78.46308000
13.20327792,-78.46308000
13.20583792,-78.46308000
13.20839792,-78.46308000
13.21095792,-73.99212000
13.21351792,-78.46308000
13.21607792,-73.99212000
13.21863792,-73.99212000
13.22119792,-78.46308000
13.22375792,-78.46308000
13.22631792,-78.46308000
13.22887792,-78.46308000
13.23143792,-78.46308000
13.23399792,-78.46308000
13.23655792,-78.46308000
13.23911792,-78.46308000
13.24167792,-78.46308000
13.24423792,-78.46308000
13.24679792,-78.46308000
13.24935792,-78.46308000
13.25191792,-78.46308000
13.25447792,-78.46308000
13.25703792,-78.46308000
13.25959792,-78.46308000
13.26215792,-78.46308000
13.26471792,-78.46308000
13.26727792,-78.46308000
13.26983792,-78.46308000
13.27239792,-73.99212000
13.27495792,-78.46308000
13.27751792,-78.46308000
13.28007792,-78.46308000
13.28263792,-78.46308000
13.28519792,-78.46308000
13.28775792,-78.46308000
13.29031792,-78.46308000
13.29287792,-78.46308000
13.29543792,-78.46308000
13.29799792,-78.46308000
13.30055792,-78.46308000
13.30311792,-78.46308000
13.30567792,-78.46308000
13.30823792,-78.46308000
13.31079792,-78.46308000
13.31335792,-78.46308000
13.31591792,-78.46308000
13.31847792,-78.46308000
13.32103792,-78.46308000
13.32359792,-78.46308000
13.32615792,-78.46308000
13.32871792,-78.46308000
13.33127792,-78.46308000
13.33383792,-78.46308000
13.33639792,-78.46308000
13.33895792,-78.46308000
13.34151792,-78.46308000
13.34407792,-78.46308000
13.34663792,-78.46308000
13.34919792,-78.46308000
13.35175792,-78.46308000
13.35431792,-78.46308000
13.35687792,-78.46308000
13.35943792,-78.46308000
13.36199792,-78.46308000
13.36455792,-78.46308000
13.36711792,-78.46308000
13.36967792,-78.46308000
13.37223792,-78.46308000
13.37479792,-78.46308000
13.37735792,-78.46308000
13.37991792,-78.46308000
13.38247792,-78.46308000
13.38503792,-78.46308000
13.38759792,-78.46308000
13.39015792,-78.46308000
13.39271792,-78.46308000
13.39527792,-78.46308000
13.39783792,-78.46308000
13.40039792,-78.46308000
13.40295792,-78.46308000
13.40551792,-78.46308000
13.40807792,-78.46308000
13.41063792,-78.46308000
13.41319792,-78.46308000
13.41575792,-78.46308000
13.41831792,-78.46308000
13.42087792,-78.46308000
13.42343792,-78.46308000
13.42599792,-78.46308000
13.42855792,-78.46308000
13.43111792,-78.46308000
13.43367792,-78.46308000
13.43623792,-78.46308000
13.43879792,-78.46308000
13.44135792,-78.46308000
13.44391792,-78.46308000
13.44647792,-78.46308000
13.44903792,-78.46308000
13.45159792,-73.99212000
13.45415792,-78.46308000
13.45671792,-78.46308000
13.45927792,-78.46308000
13.46183792,-78.46308000
13.46439792,-78.46308000
13.46695792,-78.46308000
13.46951792,-78.46308000
13.47207792,-78.46308000
13.47463792,-78.46308000
13.47719792,-78.46308000
13.47975792,-73.99212000
13.48231792,-78.46308000
13.48487792,-78.46308000
13.48743792,-78.46308000
13.48999792,-78.46308000
13.49255792,-78.46308000
13.49511792,-78.46308000
13.49767792,-78.46308000
13.50023792,-73.99212000
13.50279792,-78.46308000
13.50535792,-78.46308000
13.50791792,-78.46308000
13.51047792,-78.46308000
13.51303792,-73.99212000
13.51559792,-78.46308000
13.51815792,-78.46308000
13.52071792,-78.46308000
13.52327792,-73.99212000
13.52583792,-78.46308000
13.52839792,-78.46308000
13.53095792,-78.46308000
13.53351792,-73.99212000
13.53607792,-73.99212000
13.53863792,-78.46308000
13.54119792,-78.46308000
13.54375792,-78.46308000
13.54631792,-73.99212000
13.54887792,-78.46308000
13.55143792,-73.99212000
13.55399792,-73.99212000
13.55655792,-78.46308000
13.55911792,-73.99212000
13.56167792,-73.99212000
13.56423792,-73.99212000
13.56679792,-73.99212000
13.56935792,-73.99212000
13.57191792,-78.46308000
13.57447792,-73.99212000
13.57703792,-73.99212000
13.57959792,-78.46308000
13.58215792,-78.46308000
13.58471792,-78.46308000
13.58727792,-78.46308000
13.58983792,-78.46308000
13.59239792,-78.46308000
13.59495792,-78.46308000
13.59751792,-78.46308000
13.60007792,-73.99212000
13.60263792,-73.99212000
13.60519792,-73.99212000
13.60775792,-78.46308000
13.61031792,-78.46308000
13.61287792,-78.46308000
13.61543792,-78.46308000
13.61799792,-78.46308000
13.62055792,-73.99212000
13.62311792,-78.46308000
13.62567792,-78.46308000
13.62823792,-73.99212000
13.63079792,-78.46308000
13.63335792,-73.99212000
13.63591792,-78.46308000
13.63847792,-78.46308000
13.64103792,-73.99212000
13.64359792,-78.46308000
13.64615792,-73.99212000
13.64871792,-78.46308000
13.65127792,-73.99212000
13.65383792,-78.46308000
13.65639792,-73.99212000
13.65895792,-78.46308000
13.66151792,-73.99212000
13.66407792,-78.46308000
13.66663792,-78.46308000
13.66919792,-73.99212000
13.67175792,-73.99212000
13.67431792,-69.50591000
13.67687792,-73.99212000
13.67943792,-73.99212000
13.68199792,-73.99212000
13.68455792,-73.99212000
13.68711792,-73.99212000
13.68967792,-73.99212000
13.69223792,-73.99212000
13.69479792,-73.99212000
13.69735792,-78.46308000
13.69991792,-73.99212000
13.70247792,-73.99212000
13.70503792,-73.99212000
13.70759792,-73.99212000
13.71015792,-73.99212000
13.71271792,-73.99212000
13.71527792,-73.99212000
13.71783792,-73.99212000
13.72039792,-73.99212000
13.72295792,-73.99212000
13.72551792,-73.99212000
13.72807792,-73.99212000
13.73063792,-69.50591000
13.73319792,-73.99212000
13.73575792,-73.99212000
13.73831792,-73.99212000
13.74087792,-73.99212000
13.74343792,-73.99212000
13.74599792,-73.99212000
13.74855792,-69.50591000
13.75111792,-73.99212000
13.75367792,-73.99212000
13.75623792,-73.99212000
13.75879792,-73.99212000
13.76135792,-69.50591000
13.76391792,-69.50591000
13.76647792,-69.50591000
13.76903792,-69.50591000
13.77159792,-73.99212000
13.77415792,-69.50591000
13.77671792,-69.50591000
13.77927792,-69.50591000
13.78183792,-73.99212000
13.78439792,-69.50591000
13.78695792,-73.99212000
13.78951792,-69.50591000
13.79207792,-73.99212000
13.79463792,-73.99212000
13.79719792,-69.50591000
13.79975792,-73.99212000
13.80231792,-73.99212000
13.80487792,-73.99212000
13.80743792,-73.99212000
13.80999792,-73.99212000
13.81255792,-69.50591000
13.81511792,-69.50591000
13.81767792,-73.99212000
13.82023792,-73.99212000
13.82279792,-69.50591000
13.82535792,-73.99212000
13.82791792,-73.99212000
13.83047792,-73.99212000
13.83303792,-69.50591000
13.83559792,-73.99212000
13.83815792,-73.99212000
13.84071792,-69.50591000
13.84327792,-73.99212000
13.84583792,-73.99212000
13.84839792,-69.50591000
13.85095792,-73.99212000
13.85351792,-73.99212000
13.85607792,-69.50591000
13.85863792,-69.50591000
13.86119792,-73.99212000
13.86375792,-73.99212000
13.86631792,-73.99212000
13.86887792,-73.99212000
13.87143792,-73.99212000
13.87399792,-69.50591000
13.87655792,-73.99212000
13.87911792,-73.99212000
13.88167792,-69.50591000
13.88423792,-73.99212000
13.88679792,-69.50591000
13.88935792,-73.99212000
13.89191792,-73.99212000
13.89447792,-73.99212000
13.89703792,-73.99212000
13.89959792,-73.99212000
13.90215792,-78.46308000
13.90471792,-73.99212000
13.90727792,-73.99212000
13.90983792,-78.46308000
13.91239792,-73.99212000
13.91495792,-73.99212000
13.91751792,-78.46308000
13.92007792,-73.99212000
13.92263792,-78.46308000
13.92519792,-78.46308000
13.92775792,-78.46308000
13.93031792,-78.46308000
13.93287792,-73.99212000
13.93543792,-78.46308000
13.93799792,-73.99212000
13.94055792,-78.46308000
13.94311792,-73.99212000
13.94567792,-78.46308000
13.94823792,-78.46308000
13.95079792,-78.46308000
13.95335792,-78.46308000
13.95591792,-78.46308000
13.95847792,-73.99212000
13.96103792,-78.46308000
13.96359792,-78.46308000
13.96615792,-78.46308000
13.96871792,-78.46308000
13.97127792,-78.46308000
13.97383792,-78.46308000
13.97639792,-78.46308000
13.97895792,-78.46308000
13.98151792,-78.46308000
13.98407792,-78.46308000
13.98663792,-78.46308000
13.98919792,-78.46308000
13.99175792,-78.46308000
13.99431792,-78.46308000
13.99687792,-78.46308000
13.99943792,-78.46308000
14.00199792,-78.46308000
14.00455792,-78.46308000
14.00711792,-78.46308000
14.00967792,-78.46308000
14.01223792,-78.46308000
14.01479792,-78.46308000
14.01735792,-78.46308000
14.01991792,-78.46308000
14.02247792,-78.46308000
14.02503792,-78.46308000
14.02759792,-78.46308000
14.03015792,-78.46308000
14.03271792,-78.46308000
14.03527792,-78.46308000
14.03783792,-78.46308000
14.04039792,-78.46308000
14.04295792,-78.46308000
14.04551792,-78.46308000
14.04807792,-78.46308000
14.05063792,-78.46308000
14.05319792,-78.46308000
14.05575792,-78.46308000
14.05831792,-78.46308000
14.06087792,-73.99212000
14.06343792,-78.46308000
14.06599792,-78.46308000
14.06855792,-78.46308000
14.07111792,-78.46308000
14.07367792,-78.46308000
14.07623792,-78.46308000
14.07879792,-78.46308000
14.08135792,-78.46308000
14.08391792,-78.46308000
14.08647792,-78.46308000
14.08903792,-78.46308000
14.09159792,-73.99212000
14.09415792,-78.46308000
14.09671792,-73.99212000
14.09927792,-73.99212000
14.10183792,-73.99212000
14.10439792,-78.46308000
14.10695792,-78.46308000
14.10951792,-78.46308000
14.11207792,-78.46308000
14.11463792,-73.99212000
14.11719792,-73.99212000
14.11975792,-73.99212000
14.12231792,-73.99212000
14.12487792,-73.99212000
14.12743792,-73.99212000
14.12999792,-73.99212000
14.13255792,-73.99212000
14.13511792,-78.46308000
14.13767792,-69.50591000
14.14023792,-73.99212000
14.14279792,-78.46308000
14.14535792,-78.46308000
14.14791792,-73.99212000
14.15047792,-78.46308000
14.15303792,-73.99212000
14.15559792,-73.99212000
14.15815792,-73.99212000
14.16071792,-73.99212000
14.16327792,-73.99212000
14.16583792,-73.99212000
14.16839792,-69.50591000
14.17095792,-73.99212000
14.17351792,-73.99212000
14.17607792,-73.99212000
14.17863792,-73.99212000
14.18119792,-78.46308000
14.18375792,-73.99212000
14.18631792,-73.99212000
14.18887792,-73.99212000
14.19143792,-73.99212000
14.19399792,-69.50591000
14.19655792,-73.99212000
14.19911792,-73.99212000
14.20167792,-73.99212000
14.20423792,-73.99212000
14.20679792,-73.99212000
14.20935792,-73.99212000
14.21191792,-73.99212000
14.21447792,-73.99212000
14.21703792,-73.99212000
14.21959792,-73.99212000
14.22215792,-73.99212000
14.22471792,-73.99212000
14.22727792,-69.50591000
14.22983792,-73.99212000
14.23239792,-73.99212000
14.23495792,-73.99212000
14.23751792,-73.99212000
14.24007792,-73.99212000
14.24263792,-73.99212000
14.24519792,-73.99212000
14.24775792,-78.46308000
14.25031792,-69.50591000
14.25287792,-69.50591000
14.25543792,-78.46308000
14.25799792,-73.99212000
14.26055792,-73.99212000
14.26311792,-73.99212000
14.26567792,-73.99212000
14.26823792,-73.99212000
14.27079792,-73.99212000
14.27335792,-73.99212000
14.27591792,-73.99212000
14.27847792,-73.99212000
14.28103792,-73.99212000
14.28359792,-73.99212000
14.28615792,-73.99212000
14.28871792,-73.99212000
14.29127792,-73.99212000
14.29383792,-73.99212000
14.29639792,-73.99212000
14.29895792,-78.46308000
14.30151792,-78.46308000
14.30407792,-73.99212000
14.30663792,-73.99212000
14.30919792,-73.99212000
14.31175792,-73.99212000
14.31431792,-78.46308000
14.31687792,-73.99212000
14.31943792,-73.99212000
14.32199792,-73.99212000
14.32455792,-73.99212000
14.32711792,-73.99212000
14.32967792,-73.99212000
14.33223792,-73.99212000
14.33479792,-73.99212000
14.33735792,-78.46308000
14.33991792,-73.99212000
14.34247792,-78.46308000
14.34503792,-78.46308000
14.34759792,-78.46308000
14.35015792,-73.99212000
14.35271792,-78.46308000
14.35527792,-78.46308000
14.35783792,-73.99212000
14.36039792,-78.46308000
14.36295792,-78.46308000
14.36551792,-78.46308000
14.36807792,-73.99212000
14.37063792,-78.46308000
14.37319792,-78.46308000
14.37575792,-78.46308000
14.37831792,-78.46308000
14.38087792,-78.46308000
14.38343792,-78.46308000
14.38599792,-78.46308000
14.38855792,-78.46308000
14.39111792,-78.46308000
14.39367792,-78.46308000
14.39623792,-78.46308000
14.39879792,-78.46308000
14.40135792,-78.46308000
14.40391792,-78.46308000
14.40647792,-78.46308000
14.40903792,-78.46308000
14.41159792,-78.46308000
14.41415792,-78.46308000
14.41671792,-78.46308000
14.41927792,-78.46308000
14.42183792,-78.46308000
14.42439792,-78.46308000
14.42695792,-73.99212000
14.42951792,-78.46308000
14.43207792,-78.46308000
14.43463792,-78.46308000
14.43719792,-78.46308000
14.43975792,-78.46308000
14.44231792,-78.46308000
14.44487792,-78.46308000
14.44743792,-78.46308000
14.44999792,-78.46308000
14.45255792,-78.46308000
14.45511792,-78.46308000
14.45767792,-78.46308000
14.46023792,-78.46308000
14.46279792,-78.46308000
14.46535792,-78.46308000
14.46791792,-78.46308000
14.47047792,-78.46308000
14.47303792,-78.46308000
14.47559792,-78.46308000
14.47815792,-78.46308000
14.48071792,-78.46308000
14.48327792,-78.46308000
14.48583792,-78.46308000
14.48839792,-78.46308000
14.49095792,-78.46308000
14.49351792,-78.46308000
14.49607792,-78.46308000
14.49863792,-78.46308000
14.50119792,-78.46308000
14.50375792,-78.46308000
14.50631792,-78.46308000
14.50887792,-78.46308000
14.51143792,-78.46308000
14.51399792,-78.46308000
14.51655792,-78.46308000
14.51911792,-78.46308000
14.52167792,-78.46308000
14.52423792,-78.46308000
14.52679792,-78.46308000
14.52935792,-78.46308000
14.53191792,-78.46308000
14.53447792,-78.46308000
14.53703792,-78.46308000
14.53959792,-78.46308000
14.54215792,-78.46308000
14.54471792,-78.46308000
14.54727792,-78.46308000
14.54983792,-78.46308000
14.55239792,-78.46308000
14.55495792,-78.46308000
14.55751792,-78.46308000
14.56007792,-78.46308000
14.56263792,-78.46308000
14.56519792,-78.46308000
14.56775792,-73.99212000
14.57031792,-78.46308000
14.57287792,-78.46308000
14.57543792,-78.46308000
14.57799792,-78.46308000
14.58055791,-78.46308000
14.58311791,-78.46308000
14.58567791,-78.46308000
14.58823791,-78.46308000
14.59079791,-78.46308000
14.59335791,-78.46308000
14.59591791,-78.46308000
14.59847791,-78.46308000
14.60103791,-78.46308000
14.60359791,-78.46308000
14.60615791,-78.46308000
14.60871791,-78.46308000
14.61127791,-78.46308000
14.61383791,-78.46308000
14.61639791,-78.46308000
14.61895791,-78.46308000
14.62151791,-78.46308000
14.62407791,-78.46308000
14.62663791,-78.46308000
14.62919791,-78.46308000
14.63175791,-73.99212000
14.63431791,-78.46308000
14.63687791,-78.46308000
14.63943791,-78.46308000
14.64199791,-73.99212000
14.64455791,-78.46308000
14.64711791,-73.99212000
14.64967791,-73.99212000
14.65223791,-73.99212000
14.65479791,-69.50591000
14.65735791,-78.46308000
14.65991791,-78.46308000
14.66247791,-73.99212000
14.66503791,-73.99212000
14.66759791,-73.99212000
14.67015791,-73.99212000
14.67271791,-73.99212000
14.67527791,-78.46308000
14.67783791,-73.99212000
14.68039791,-73.99212000
14.68295791,-73.99212000
14.68551791,-73.99212000
14.68807791,-73.99212000
14.69063791,-78.46308000
14.69319791,-73.99212000
14.69575791,-73.99212000
14.69831791,-78.46308000
14.70087791,-73.99212000
14.70343791,-73.99212000
14.70599791,-69.50591000
14.70855791,-78.46308000
14.71111791,-73.99212000
14.71367791,-73.99212000
14.71623791,-73.99212000
14.71879791,-73.99212000
14.72135791,-73.99212000
14.72391791,-73.99212000
14.72647791,-73.99212000
14.72903791,-73.99212000
14.73159791,-78.46308000
14.73415791,-73.99212000
14.73671791,-73.99212000
14.73927791,-73.99212000
14.74183791,-73.99212000
14.74439791,-73.99212000
14.74695791,-73.99212000
14.74951791,-73.99212000
14.75207791,-73.99212000
14.75463791,-73.99212000
14.75719791,-69.50591000
14.75975791,-73.99212000
14.76231791,-73.99212000
14.76487791,-73.99212000
14.76743791,-73.99212000
14.76999791,-73.99212000
14.77255791,-73.99212000
14.77511791,-78.46308000
14.77767791,-73.99212000
14.78023791,-73.99212000
14.78279791,-73.99212000
14.78535791,-73.99212000
14.78791791,-73.99212000
14.79047791,-73.99212000
14.79303791,-73.99212000
14.79559791,-73.99212000
14.79815791,-78.46308000
14.80071791,-73.99212000
14.80327791,-73.99212000
14.80583791,-73.99212000
14.80839791,-73.99212000
14.81095791,-78.46308000
14.81351791,-73.99212000
14.81607791,-73.99212000
14.81863791,-73.99212000
14.82119791,-69.50591000
14.82375791,-73.99212000
14.82631791,-73.99212000
14.82887791,-73.99212000
14.83143791,-73.99212000
14.83399791,-73.99212000
14.83655791,-73.99212000
14.83911791,-73.99212000
14.84167791,-73.99212000
14.84423791,-78.46308000
14.84679791,-73.99212000
14.84935791,-78.46308000
14.85191791,-73.99212000
14.85447791,-73.99212000
14.85703791,-73.99212000
14.85959791,-73.99212000
14.86215791,-73.99212000
14.86471791,-73.99212000
14.86727791,-73.99212000
14.86983791,-73.99212000
14.87239791,-73.99212000
14.87495791,-73.99212000
14.87751791,-73.99212000
14.88007791,-78.46308000
14.88263791,-73.99212000
14.88519791,-73.99212000
14.88775791,-78.46308000
14.89031791,-73.99212000
14.89287791,-73.99212000
14.89543791,-73.99212000
14.89799791,-73.99212000
14.90055791,-73.99212000
14.90311791,-73.99212000
14.90567791,-73.99212000
14.90823791,-73.99212000
14.91079791,-73.99212000
14.91335791,-69.50591000
14.91591791,-73.99212000
14.91847791,-73.99212000
14.92103791,-73.99212000
14.92359791,-73.99212000
14.92615791,-73.99212000
14.92871791,-73.99212000
14.93127791,-73.99212000
14.93383791,-73.99212000
14.93639791,-69.50591000
14.93895791,-73.99212000
14.94151791,-73.99212000
14.94407791,-73.99212000
14.94663791,-73.99212000
14.94919791,-73.99212000
14.95175791,-73.99212000
14.95431791,-73.99212000
14.95687791,-73.99212000
14.95943791,-73.99212000
14.96199791,-73.99212000
14.96455791,-73.99212000
14.96711791,-73.99212000
14.96967791,-73.99212000
14.97223791,-73.99212000
14.97479791,-73.99212000
14.97735791,-73.99212000
14.97991791,-73.99212000
14.98247791,-73.99212000
14.98503791,-73.99212000
14.98759791,-73.99212000
14.99015791,-73.99212000
14.99271791,-73.99212000
14.99527791,-73.99212000
14.99783791,-73.99212000
15.00039791,-73.99212000
15.00295791,-73.99212000
15.00551791,-73.99212000
15.00807791,-73.99212000
15.01063791,-78.46308000
15.01319791,-73.99212000
15.01575791,-73.99212000
15.01831791,-73.99212000
15.02087791,-78.46308000
15.02343791,-73.99212000
15.02599791,-73.99212000
15.02855791,-73.99212000
15.03111791,-73.99212000
15.03367791,-73.99212000
15.03623791,-78.46308000
15.03879791,-78.46308000
15.04135791,-78.46308000
15.04391791,-78.46308000
15.04647791,-78.46308000
15.04903791,-78.46308000
15.05159791,-78.46308000
15.05415791,-78.46308000
15.05671791,-73.99212000
15.05927791,-73.99212000
15.06183791,-73.99212000
15.06439791,-78.46308000
15.06695791,-78.46308000
15.06951791,-78.46308000
15.07207791,-78.46308000
15.07463791,-73.99212000
15.07719791,-78.46308000
15.07975791,-78.46308000
15.08231791,-73.99212000
15.08487791,-78.46308000
15.08743791,-78.46308000
15.08999791,-73.99212000
15.09255791,-78.46308000
15.09511791,-78.46308000
15.09767791,-78.46308000
15.10023791,-78.46308000
15.10279791,-78.46308000
15.10535791,-78.46308000
15.10791791,-78.46308000
15.11047791,-78.46308000
15.11303791,-78.46308000
15.11559791,-78.46308000
15.11815791,-78.46308000
15.12071791,-78.46308000
15.12327791,-78.46308000
15.12583791,-78.46308000
15.12839791,-73.99212000
15.13095791,-78.46308000
15.13351791,-78.46308000
15.13607791,-78.46308000
15.13863791,-78.46308000
15.14119791,-78.46308000
15.14375791,-73.99212000
15.14631791,-73.99212000
15.14887791,-78.46308000
15.15143791,-78.46308000
15.15399791,-78.46308000
15.15655791,-78.46308000
15.15911791,-78.46308000
15.16167791,-73.99212000
15.16423791,-73.99212000
15.16679791,-73.99212000
15.16935791,-78.46308000
15.17191791,-78.46308000
15.17447791,-78.46308000
15.17703791,-78.46308000
15.17959791,-78.46308000
15.18215791,-78.46308000
15.18471791,-78.46308000
15.18727791,-73.99212000
15.18983791,-73.99212000
15.19239791,-78.46308000
15.19495791,-78.46308000
15.19751791,-73.99212000
15.20007791,-73.99212000
15.20263791,-73.99212000
15.20519791,-73.99212000
15.20775791,-73.99212000
15.21031791,-73.99212000
15.21287791,-73.99212000
15.21543791,-73.99212000
15.21799791,-73.99212000
15.22055791,-73.99212000
15.22311791,-73.99212000
15.22567791,-73.99212000
15.22823791,-73.99212000
15.23079791,-73.99212000
15.23335791,-78.46308000
15.23591791,-73.99212000
15.23847791,-73.99212000
15.24103791,-73.99212000
15.24359791,-73.99212000
15.24615791,-73.99212000
15.24871791,-73.99212000
15.25127791,-78.46308000
15.25383791,-73.99212000
15.25639791,-73.99212000
15.25895791,-73.99212000
15.26151791,-73.99212000
15.26407791,-69.50591000
15.26663791,-73.99212000
15.26919791,-73.99212000
15.27175791,-73.99212000
15.27431791,-73.99212000
15.27687791,-73.99212000
15.27943791,-73.99212000
15.28199791,-73.99212000
15.28455791,-73.99212000
15.28711791,-73.99212000
15.28967791,-73.99212000
15.29223791,-69.50591000
15.29479791,-73.99212000
15.29735791,-73.99212000
15.29991791,-73.99212000
15.30247791,-73.99212000
15.30503791,-73.99212000
15.30759791,-73.99212000
15.31015791,-73.99212000
15.31271791,-73.99212000
15.31527791,-69.50591000
15.31783791,-73.99212000
15.32039791,-73.99212000
15.32295791,-73.99212000
15.32551791,-73.99212000
15.32807791,-73.99212000
15.33063791,-69.50591000
15.33319791,-73.99212000
15.33575791,-69.50591000
15.33831791,-73.99212000
15.34087791,-73.99212000
15.34343791,-73.99212000
15.34599791,-73.99212000
15.34855791,-73.99212000
15.35111791,-73.99212000
15.35367791,-73.99212000
15.35623791,-73.99212000
15.35879791,-73.99212000
15.36135791,-73.99212000
15.36391791,-73.99212000
15.36647791,-73.99212000
15.36903791,-73.99212000
15.37159791,-73.99212000
15.37415791,-78.46308000
15.37671791,-73.99212000
15.37927791,-73.99212000
15.38183791,-73.99212000
15.38439791,-73.99212000
15.38695791,-73.99212000
15.38951791,-73.99212000
15.39207791,-69.50591000
15.39463791,-69.50591000
15.39719791,-78.46308000
15.39975791,-73.99212000
15.40231791,-73.99212000
15.40487791,-73.99212000
15.40743791,-73.99212000
15.40999791,-73.99212000
15.41255791,-73.99212000
15.41511791,-73.99212000
15.41767791,-73.99212000
15.42023791,-73.99212000
15.42279791,-73.99212000
15.42535791,-73.99212000
15.42791791,-73.99212000
15.43047791,-73.99212000
15.43303791,-73.99212000
15.43559791,-73.99212000
15.43815791,-73.99212000
15.44071791,-78.46308000
15.44327791,-73.99212000
15.44583791,-73.99212000
15.44839791,-73.99212000
15.45095791,-73.99212000
15.45351791,-73.99212000
15.45607791,-73.99212000
15.45863791,-73.99212000
15.46119791,-78.46308000
15.46375791,-73.99212000
15.46631791,-73.99212000
15.46887791,-73.99212000
15.47143791,-73.99212000
15.47399791,-73.99212000
15.47655791,-73.99212000
15.47911791,-73.99212000
15.48167791,-73.99212000
15.48423791,-73.99212000
15.48679791,-73.99212000
15.48935791,-73.99212000
15.49191791,-73.99212000
15.49447791,-73.99212000
15.49703791,-73.99212000
15.49959791,-73.99212000
15.50215791,-73.99212000
15.50471791,-73.99212000
15.50727791,-73.99212000
15.50983791,-78.46308000
15.51239791,-73.99212000
15.51495791,-78.46308000
15.51751791,-73.99212000
15.52007791,-73.99212000
15.52263791,-73.99212000
15.52519791,-73.99212000
15.52775791,-73.99212000
15.53031791,-73.99212000
15.53287791,-78.46308000
15.53543791,-73.99212000
15.53799791,-73.99212000
15.54055791,-73.99212000
15.54311791,-73.99212000
15.54567791,-73.99212000
15.54823791,-78.46308000
15.55079791,-73.99212000
15.55335791,-73.99212000
15.55591791,-73.99212000
15.55847791,-73.99212000
15.56103791,-73.99212000
15.56359791,-73.99212000
15.56615791,-78.46308000
15.56871791,-78.46308000
15.57127791,-78.46308000
15.57383791,-73.99212000
15.57639791,-73.99212000
15.57895791,-73.99212000
15.58151791,-73.99212000
15.58407791,-73.99212000
15.58663791,-78.46308000
15.58919791,-78.46308000
15.59175791,-78.46308000
15.59431791,-73.99212000
15.59687791,-78.46308000
15.59943791,-78.46308000
15.60199791,-78.46308000
15.60455791,-78.46308000
15.60711791,-73.99212000
15.60967791,-78.46308000
15.61223791,-78.46308000
15.61479791,-78.46308000
15.61735791,-78.46308000
15.61991791,-78.46308000
15.62247791,-78.46308000
15.62503791,-78.46308000
15.62759791,-78.46308000
15.63015791,-73.99212000
15.63271791,-73.99212000
15.63527791,-78.46308000
15.63783791,-78.46308000
15.64039791,-78.46308000
15.64295791,-78.46308000
15.64551791,-78.46308000
15.64807791,-78.46308000
15.65063791,-78.46308000
15.65319791,-78.46308000
15.65575791,-78.46308000
15.65831791,-78.46308000
15.66087791,-78.46308000
15.66343791,-78.46308000
15.66599791,-78.46308000
15.66855791,-78.46308000
15.67111791,-78.46308000
15.67367791,-78.46308000
15.67623791,-78.46308000
15.67879791,-78.46308000
15.68135791,-78.46308000
15.68391791,-73.99212000
15.68647791,-78.46308000
15.68903791,-78.46308000
15.69159791,-78.46308000
15.69415791,-78.46308000
15.69671791,-78.46308000
15.69927791,-78.46308000
15.70183791,-78.46308000
15.70439791,-78.46308000
15.70695791,-78.46308000
15.70951791,-78.46308000
15.71207791,-78.46308000
15.71463791,-78.46308000
15.71719791,-78.46308000
15.71975791,-78.46308000
15.72231791,-78.46308000
15.72487791,-78.46308000
15.72743791,-78.46308000
15.72999791,-78.46308000
15.73255791,-78.46308000
15.73511791,-78.46308000
15.73767791,-78.46308000
15.74023791,-78.46308000
15.74279791,-78.46308000
15.74535791,-78.46308000
15.74791791,-78.46308000
15.75047791,-78.46308000
15.75303791,-78.46308000
15.75559791,-78.46308000
15.75815791,-78.46308000
15.76071791,-78.46308000
15.76327791,-78.46308000
15.76583791,-78.46308000
15.76839791,-78.46308000
15.77095791,-78.46308000
15.77351791,-78.46308000
15.77607791,-78.46308000
15.77863791,-78.46308000
15.78119791,-78.46308000
15.78375791,-78.46308000
15.78631791,-78.46308000
15.78887791,-78.46308000
15.79143791,-78.46308000
15.79399791,-78.46308000
15.79655791,-78.46308000
15.79911791,-78.46308000
15.80167791,-78.46308000
15.80423791,-78.46308000
15.80679791,-78.46308000
15.80935791,-78.46308000
15.81191791,-78.46308000
15.81447791,-78.46308000
15.81703791,-78.46308000
15.81959791,-78.46308000
15.82215791,-78.46308000
15.82471791,-78.46308000
15.82727791,-78.46308000
15.82983791,-78.46308000
15.83239791,-78.46308000
15.83495791,-78.46308000
15.83751791,-78.46308000
15.84007791,-78.46308000
15.84263791,-78.46308000
15.84519791,-78.46308000
15.84775791,-78.46308000
15.85031791,-78.46308000
15.85287791,-78.46308000
15.85543791,-78.46308000
15.85799791,-78.46308000
15.86055791,-78.46308000
15.86311791,-78.46308000
15.86567791,-78.46308000
15.86823791,-78.46308000
15.87079791,-78.46308000
15.87335791,-78.46308000
15.87591791,-78.46308000
15.87847791,-78.46308000
15.88103791,-78.46308000
15.88359791,-78.46308000
15.88615791,-78.46308000
15.88871791,-73.99212000
15.89127791,-78.46308000
15.89383791,-78.46308000
15.89639791,-78.46308000
15.89895791,-78.46308000
15.90151791,-78.46308000
15.90407791,-78.46308000
15.90663791,-78.46308000
15.90919791,-78.46308000
15.91175791,-78.46308000
15.91431791,-78.46308000
15.91687791,-78.46308000
15.91943791,-73.99212000
15.92199791,-73.99212000
15.92455791,-78.46308000
15.92711791,-78.46308000
15.92967791,-78.46308000
15.93223791,-78.46308000
15.93479791,-78.46308000
15.93735791,-78.46308000
15.93991791,-78.46308000
15.94247791,-78.46308000
15.94503791,-78.46308000
15.94759791,-78.46308000
15.95015791,-78.46308000
15.95271791,-78.46308000
15.95527791,-73.99212000
15.95783791,-78.46308000
15.96039791,-78.46308000
15.96295791,-78.46308000
15.96551791,-73.99212000
15.96807791,-78.46308000
15.97063791,-78.46308000
15.97319791,-78.46308000
15.97575791,-78.46308000
15.97831791,-73.99212000
15.98087791,-78.46308000
15.98343791,-73.99212000
15.98599791,-73.99212000
15.98855791,-73.99212000
15.99111791,-78.46308000
15.99367791,-78.46308000
15.99623791,-78.46308000
15.99879791,-78.46308000
16.00135791,-78.46308000
16.00391791,-78.46308000
16.00647791,-78.46308000
16.00903791,-78.46308000
16.01159791,-73.99212000
16.01415791,-78.46308000
16.01671791,-78.46308000
16.01927791,-78.46308000
16.02183791,-78.46308000
16.02439791,-78.46308000
16.02695791,-73.99212000
16.02951791,-78.46308000
16.03207791,-78.46308000
16.03463791,-78.46308000
16.03719791,-78.46308000
16.03975791,-69.50591000
16.04231791,-73.99212000
16.04487791,-78.46308000
16.04743791,-73.99212000
16.04999791,-78.46308000
16.05255791,-78.46308000
16.05511791,-73.99212000
16.05767791,-73.99212000
16.06023791,-78.46308000
16.06279791,-73.99212000
16.06535791,-73.99212000
16.06791791,-73.99212000
16.07047791,-78.46308000
16.07303791,-78.46308000
16.07559791,-78.46308000
16.07815791,-78.46308000
16.08071791,-73.99212000
16.08327791,-78.46308000
16.08583791,-78.46308000
16.08839791,-78.46308000
16.09095791,-78.46308000
16.09351791,-78.46308000
16.09607791,-78.46308000
16.09863791,-78.46308000
16.10119791,-78.46308000
16.10375791,-73.99212000
16.10631791,-78.46308000
16.10887791,-78.46308000
16.11143791,-78.46308000
16.11399791,-78.46308000
16.11655791,-78.46308000
16.11911791,-78.46308000
16.12167791,-78.46308000
16.12423791,-78.46308000
16.12679791,-78.46308000
16.12935791,-78.46308000
16.13191791,-78.46308000
16.13447791,-78.46308000
16.13703791,-78.46308000
16.13959791,-73.99212000
16.14215791,-78.46308000
16.14471791,-78.46308000
16.14727791,-78.46308000
16.14983791,-78.46308000
16.15239791,-78.46308000
16.15495791,-78.46308000
16.15751791,-78.46308000
16.16007791,-78.46308000
16.16263791,-78.46308000
16.16519791,-73.99212000
16.16775791,-78.46308000
16.17031791,-78.46308000
16.17287791,-78.46308000
16.17543791,-78.46308000
16.17799791,-78.46308000
16.18055791,-78.46308000
16.18311791,-78.46308000
16.18567791,-78.46308000
16.18823791,-78.46308000
16.19079791,-78.46308000
16.19335791,-73.99212000
16.19591791,-78.46308000
16.19847791,-78.46308000
16.20103791,-78.46308000
16.20359791,-78.46308000
16.20615791,-78.46308000
16.20871791,-73.99212000
16.21127791,-78.46308000
16.21383791,-78.46308000
16.21639791,-78.46308000
16.21895791,-78.46308000
16.22151791,-78.46308000
16.22407791,-78.46308000
16.22663790,-78.46308000
16.22919790,-73.99212000
16.23175790,-78.46308000
16.23431790,-78.46308000
16.23687790,-78.46308000
16.23943790,-78.46308000
16.24199790,-78.46308000
16.24455790,-78.46308000
16.24711790,-78.46308000
16.24967790,-78.46308000
16.25223790,-78.46308000
16.25479790,-78.46308000
16.25735790,-78.46308000
16.25991790,-78.46308000
16.26247790,-78.46308000
16.26503790,-78.46308000
16.26759790,-78.46308000
16.27015790,-78.46308000
16.27271790,-78.46308000
16.27527790,-78.46308000
16.27783790,-78.46308000
16.28039790,-78.46308000
16.28295790,-73.99212000
16.28551790,-78.46308000
16.28807790,-78.46308000
16.29063790,-78.46308000
16.29319790,-78.46308000
16.29575790,-78.46308000
16.29831790,-78.46308000
16.30087790,-78.46308000
16.30343790,-78.46308000
16.30599790,-78.46308000
16.30855790,-78.46308000
16.31111790,-73.99212000
16.31367790,-78.46308000
16.31623790,-78.46308000
16.31879790,-78.46308000
16.32135790,-78.46308000
16.32391790,-78.46308000
16.32647790,-78.46308000
16.32903790,-78.46308000
16.33159790,-78.46308000
16.33415790,-78.46308000
16.33671790,-78.46308000
16.33927790,-78.46308000
16.34183790,-78.46308000
16.34439790,-78.46308000
16.34695790,-78.46308000
16.34951790,-73.99212000
16.35207790,-78.46308000
16.35463790,-78.46308000
16.35719790,-73.99212000
16.35975790,-78.46308000
16.36231790,-78.46308000
16.36487790,-78.46308000
16.36743790,-73.99212000
16.36999790,-78.46308000
16.37255790,-78.46308000
16.37511790,-78.46308000
16.37767790,-78.46308000
16.38023790,-78.46308000
16.38279790,-73.99212000
16.38535790,-78.46308000
16.38791790,-78.46308000
16.39047790,-78.46308000
16.39303790,-78.46308000
16.39559790,-78.46308000
16.39815790,-73.99212000
16.40071790,-78.46308000
16.40327790,-78.46308000
16.40583790,-78.46308000
16.40839790,-73.99212000
16.41095790,-73.99212000
16.41351790,-73.99212000
16.41607790,-73.99212000
16.41863790,-73.99212000
16.42119790,-73.99212000
16.42375790,-73.99212000
16.42631790,-73.99212000
16.42887790,-73.99212000
16.43143790,-73.99212000
16.43399790,-69.50591000
16.43655790,-73.99212000
16.43911790,-73.99212000
16.44167790,-73.99212000
16.44423790,-73.99212000
16.44679790,-73.99212000
16.44935790,-73.99212000
16.45191790,-73.99212000
16.45447790,-73.99212000
16.45703790,-69.50591000
16.45959790,-73.99212000
16.46215790,-69.50591000
16.46471790,-69.50591000
16.46727790,-73.99212000
16.46983790,-69.50591000
16.47239790,-73.99212000
16.47495790,-73.99212000
16.47751790,-69.50591000
16.48007790,-73.99212000
16.48263790,-73.99212000
16.48519790,-69.50591000
16.48775790,-69.50591000
16.49031790,-69.50591000
16.49287790,-69.50591000
16.49543790,-69.50591000
16.49799790,-69.50591000
16.50055790,-73.99212000
16.50311790,-69.50591000
16.50567790,-69.50591000
16.50823790,-69.50591000
16.51079790,-73.99212000
16.51335790,-69.50591000
16.51591790,-73.99212000
16.51847790,-69.50591000
16.52103790,-73.99212000
16.52359790,-69.50591000
16.52615790,-69.50591000
16.52871790,-69.50591000
16.53127790,-69.50591000
16.53383790,-69.50591000
16.53639790,-69.50591000
16.53895790,-69.50591000
16.54151790,-69.50591000
16.54407790,-69.50591000
16.54663790,-69.50591000
16.54919790,-69.50591000
16.55175790,-73.99212000
16.55431790,-69.50591000
16.55687790,-69.50591000
16.55943790,-69.50591000
16.56199790,-69.50591000
16.56455790,-73.99212000
16.56711790,-73.99212000
16.56967790,-73.99212000
16.57223790,-73.99212000
16.57479790,-73.99212000
16.57735790,-73.99212000
16.57991790,-73.99212000
16.58247790,-73.99212000
16.58503790,-69.50591000
16.58759790,-69.50591000
16.59015790,-73.99212000
16.59271790,-69.50591000
16.59527790,-73.99212000
16.59783790,-69.50591000
16.60039790,-69.50591000
16.60295790,-73.99212000
16.60551790,-73.99212000
16.60807790,-73.99212000
16.61063790,-78.46308000
16.61319790,-73.99212000
16.61575790,-73.99212000
16.61831790,-73.99212000
16.62087790,-73.99212000
16.62343790,-78.46308000
16.62599790,-78.46308000
16.62855790,-78.46308000
16.63111790,-73.99212000
16.63367790,-73.99212000
16.63623790,-73.99212000
16.63879790,-73.99212000
16.64135790,-78.46308000
16.64391790,-73.99212000
16.64647790,-73.99212000
16.64903790,-73.99212000
16.65159790,-73.99212000
16.65415790,-78.46308000
16.65671790,-73.99212000
16.65927790,-78.46308000
16.66183790,-73.99212000
16.66439790,-78.46308000
16.66695790,-73.99212000
16.66951790,-78.46308000
16.67207790,-78.46308000
16.67463790,-78.46308000
16.67719790,-78.46308000
16.67975790,-78.46308000
16.68231790,-78.46308000
16.68487790,-73.99212000
16.68743790,-78.46308000
16.68999790,-73.99212000
16.69255790,-78.46308000
16.69511790,-78.46308000
16.69767790,-78.46308000
16.70023790,-78.46308000
16.70279790,-78.46308000
16.70535790,-78.46308000
16.70791790,-78.46308000
16.71047790,-78.46308000
16.71303790,-78.46308000
16.71559790,-78.46308000
16.71815790,-78.46308000
16.72071790,-78.46308000
16.72327790,-78.46308000
16.72583790,-78.46308000
16.72839790,-78.46308000
16.73095790,-78.46308000
16.73351790,-78.46308000
16.73607790,-78.46308000
16.73863790,-78.46308000
16.74119790,-78.46308000
16.74375790,-78.46308000
16.74631790,-78.46308000
16.74887790,-78.46308000
16.75143790,-78.46308000
16.75399790,-78.46308000
16.75655790,-78.46308000
16.75911790,-78.46308000
16.76167790,-78.46308000
16.76423790,-78.46308000
16.76679790,-78.46308000
16.76935790,-78.46308000
16.77191790,-78.46308000
16.77447790,-78.46308000
16.77703790,-78.46308000
16.77959790,-78.46308000
16.78215790,-78.46308000
16.78471790,-78.46308000
16.78727790,-78.46308000
16.78983790,-78.46308000
16.79239790,-78.46308000
16.79495790,-78.46308000
16.79751790,-78.46308000
16.80007790,-78.46308000
16.80263790,-78.46308000
16.80519790,-78.46308000
16.80775790,-78.46308000
16.81031790,-78.46308000
16.81287790,-73.99212000
16.81543790,-78.46308000
16.81799790,-73.99212000
16.82055790,-78.46308000
16.82311790,-78.46308000
16.82567790,-78.46308000
16.82823790,-73.99212000
16.83079790,-78.46308000
16.83335790,-78.46308000
16.83591790,-78.46308000
16.83847790,-78.46308000
16.84103790,-78.46308000
16.84359790,-73.99212000
16.84615790,-78.46308000
16.84871790,-78.46308000
16.85127790,-78.46308000
16.85383790,-73.99212000
16.85639790,-73.99212000
16.85895790,-73.99212000
16.86151790,-73.99212000
16.86407790,-73.99212000
16.86663790,-73.99212000
16.86919790,-73.99212000
16.87175790,-78.46308000
16.87431790,-78.46308000
16.87687790,-78.46308000
16.87943790,-78.46308000
16.88199790,-73.99212000
16.88455790,-73.99212000
16.88711790,-78.46308000
16.88967790,-78.46308000
16.89223790,-78.46308000
16.89479790,-73.99212000
16.89735790,-73.99212000
16.89991790,-73.99212000
16.90247790,-78.46308000
16.90503790,-73.99212000
16.90759790,-73.99212000
16.91015790,-73.99212000
16.91271790,-73.99212000
16.91527790,-78.46308000
16.91783790,-73.99212000
16.92039790,-73.99212000
16.92295790,-78.46308000
16.92551790,-73.99212000
16.92807790,-78.46308000
16.93063790,-69.50591000
16.93319790,-73.99212000
16.93575790,-73.99212000
16.93831790,-73.99212000
16.94087790,-73.99212000
16.94343790,-73.99212000
16.94599790,-73.99212000
16.94855790,-69.50591000
16.95111790,-73.99212000
16.95367790,-73.99212000
16.95623790,-73.99212000
16.95879790,-73.99212000
16.96135790,-78.46308000
16.96391790,-69.50591000
16.96647790,-73.99212000
16.96903790,-73.99212000
16.97159790,-73.99212000
16.97415790,-73.99212000
16.97671790,-73.99212000
16.97927790,-73.99212000
16.98183790,-73.99212000
16.98439790,-73.99212000
16.98695790,-73.99212000
16.98951790,-73.99212000
16.99207790,-73.99212000
16.99463790,-73.99212000
16.99719790,-73.99212000
16.99975790,-73.99212000
17.00231790,-78.46308000
17.00487790,-78.46308000
17.00743790,-73.99212000
17.00999790,-78.46308000
17.01255790,-73.99212000
17.01511790,-73.99212000
17.01767790,-73.99212000
17.02023790,-78.46308000
17.02279790,-73.99212000
17.02535790,-73.99212000
17.02791790,-73.99212000
17.03047790,-73.99212000
17.03303790,-78.46308000
17.03559790,-78.46308000
17.03815790,-73.99212000
17.04071790,-73.99212000
17.04327790,-78.46308000
17.04583790,-73.99212000
17.04839790,-73.99212000
17.05095790,-73.99212000
17.05351790,-73.99212000
17.05607790,-69.50591000
17.05863790,-73.99212000
17.06119790,-73.99212000
17.06375790,-69.50591000
17.06631790,-73.99212000
17.06887790,-73.99212000
17.07143790,-73.99212000
17.07399790,-73.99212000
17.07655790,-73.99212000
17.07911790,-73.99212000
17.08167790,-73.99212000
17.08423790,-73.99212000
17.08679790,-73.99212000
17.08935790,-73.99212000
17.09191790,-73.99212000
17.09447790,-69.50591000
17.09703790,-73.99212000
17.09959790,-73.99212000
17.10215790,-73.99212000
17.10471790,-73.99212000
17.10727790,-73.99212000
17.10983790,-73.99212000
17.11239790,-73.99212000
17.11495790,-73.99212000
17.11751790,-78.46308000
17.12007790,-73.99212000
17.12263790,-73.99212000
17.12519790,-73.99212000
17.12775790,-73.99212000
17.13031790,-73.99212000
17.13287790,-78.46308000
17.13543790,-73.99212000
17.13799790,-73.99212000
17.14055790,-73.99212000
17.14311790,-73.99212000
17.14567790,-73.99212000
17.14823790,-78.46308000
17.15079790,-73.99212000
17.15335790,-73.99212000
17.15591790,-73.99212000
17.15847790,-73.99212000
17.16103790,-73.99212000
17.16359790,-73.99212000
17.16615790,-73.99212000
17.16871790,-78.46308000
17.17127790,-78.46308000
17.17383790,-78.46308000
17.17639790,-73.99212000
17.17895790,-73.99212000
17.18151790,-78.46308000
17.18407790,-78.46308000
17.18663790,-78.46308000
17.18919790,-73.99212000
17.19175790,-73.99212000
17.19431790,-78.46308000
17.19687790,-78.46308000
17.19943790,-73.99212000
17.20199790,-78.46308000
17.20455790,-78.46308000
17.20711790,-78.46308000
17.20967790,-78.46308000
17.21223790,-73.99212000
17.21479790,-78.46308000
17.21735790,-78.46308000
17.21991790,-78.46308000
17.22247790,-78.46308000
17.22503790,-78.46308000
17.22759790,-78.46308000
17.23015790,-78.46308000
17.23271790,-78.46308000
17.23527790,-78.46308000
17.23783790,-78.46308000
17.24039790,-78.46308000
17.24295790,-78.46308000
17.24551790,-78.46308000
17.24807790,-73.99212000
17.25063790,-78.46308000
17.25319790,-78.46308000
17.25575790,-78.46308000
17.25831790,-78.46308000
17.26087790,-78.46308000
17.26343790,-78.46308000
17.26599790,-78.46308000
17.26855790,-78.46308000
17.27111790,-78.46308000
17.27367790,-78.46308000
17.27623790,-78.46308000
17.27879790,-78.46308000
17.28135790,-78.46308000
17.28391790,-78.46308000
17.28647790,-78.46308000
17.28903790,-78.46308000
17.29159790,-78.46308000
17.29415790,-78.46308000
17.29671790,-78.46308000
17.29927790,-78.46308000
17.30183790,-78.46308000
17.30439790,-78.46308000
17.30695790,-78.46308000
17.30951790,-78.46308000
17.31207790,-78.46308000
17.31463790,-78.46308000
17.31719790,-78.46308000
17.31975790,-78.46308000
17.32231790,-78.46308000
17.32487790,-78.46308000
17.32743790,-78.46308000
17.32999790,-78.46308000
17.33255790,-78.46308000
17.33511790,-78.46308000
17.33767790,-78.46308000
17.34023790,-78.46308000
17.34279790,-78.46308000
17.34535790,-78.46308000
17.34791790,-78.46308000
17.35047790,-78.46308000
17.35303790,-78.46308000
17.35559790,-78.46308000
17.35815790,-78.46308000
17.36071790,-78.46308000
17.36327790,-78.46308000
17.36583790,-78.46308000
17.36839790,-78.46308000
17.37095790,-78.46308000
17.37351790,-78.46308000
17.37607790,-78.46308000
17.37863790,-78.46308000
17.38119790,-78.46308000
17.38375790,-78.46308000
17.38631790,-78.46308000
17.38887790,-78.46308000
17.39143790,-78.46308000
17.39399790,-78.46308000
17.39655790,-78.46308000
17.39911790,-78.46308000
17.40167790,-78.46308000
17.40423790,-78.46308000
17.40679790,-78.46308000
17.40935790,-78.46308000
17.41191790,-78.46308000
17.41447790,-78.46308000
17.41703790,-78.46308000
17.41959790,-78.46308000
17.42215790,-78.46308000
17.42471790,-78.46308000
17.42727790,-78.46308000
17.42983790,-78.46308000
17.43239790,-78.46308000
17.43495790,-78.46308000
17.43751790,-78.46308000
17.44007790,-78.46308000
17.44263790,-78.46308000
17.44519790,-78.46308000
17.44775790,-78.46308000
17.45031790,-78.46308000
17.45287790,-78.46308000
17.45543790,-78.46308000
17.45799790,-78.46308000
17.46055790,-78.46308000
17.46311790,-78.46308000
17.46567790,-78.46308000
17.46823790,-78.46308000
17.47079790,-78.46308000
17.47335790,-78.46308000
17.47591790,-78.46308000
17.47847790,-78.46308000
17.48103790,-78.46308000
17.48359790,-78.46308000
17.48615790,-78.46308000
17.48871790,-78.46308000
17.49127790,-78.46308000
17.49383790,-78.46308000
17.49639790,-78.46308000
17.49895790,-78.46308000
17.50151790,-78.46308000
17.50407790,-78.46308000
17.50663790,-78.46308000
17.50919790,-78.46308000
17.51175790,-78.46308000
17.51431790,-78.46308000
17.51687790,-78.46308000
17.51943790,-78.46308000
17.52199790,-78.46308000
17.52455790,-78.46308000
17.52711790,-78.46308000
17.52967790,-78.46308000
17.53223790,-78.46308000
17.53479790,-73.99212000
17.53735790,-78.46308000
17.53991790,-78.46308000
17.54247790,-78.46308000
17.54503790,-78.46308000
17.54759790,-78.46308000
17.55015790,-78.46308000
17.55271790,-78.46308000
17.55527790,-78.46308000
17.55783790,-78.46308000
17.56039790,-78.46308000
17.56295790,-78.46308000
17.56551790,-78.46308000
17.56807790,-78.46308000
17.57063790,-78.46308000
17.57319790,-78.46308000
17.57575790,-78.46308000
17.57831790,-78.46308000
17.58087790,-78.46308000
17.58343790,-78.46308000
17.58599790,-78.46308000
17.58855790,-73.99212000
17.59111790,-78.46308000
17.59367790,-73.99212000
17.59623790,-78.46308000
17.59879790,-78.46308000
17.60135790,-78.46308000
17.60391790,-78.46308000
17.60647790,-73.99212000
17.60903790,-73.99212000
17.61159790,-78.46308000
17.61415790,-73.99212000
17.61671790,-73.99212000
17.61927790,-78.46308000
17.62183790,-73.99212000
17.62439790,-78.46308000
17.62695790,-78.46308000
17.62951790,-78.46308000
17.63207790,-73.99212000
17.63463790,-78.46308000
17.63719790,-78.46308000
17.63975790,-78.46308000
17.64231790,-73.99212000
17.64487790,-78.46308000
17.64743790,-78.46308000
17.64999790,-78.46308000
17.65255790,-73.99212000
17.65511790,-73.99212000
17.65767790,-73.99212000
17.66023790,-73.99212000
17.66279790,-78.46308000
17.66535790,-73.99212000
17.66791790,-78.46308000
17.67047790,-78.46308000
17.67303790,-78.46308000
17.67559790,-78.46308000
17.67815790,-73.99212000
17.68071790,-78.46308000
17.68327790,-78.46308000
17.68583790,-78.46308000
17.68839790,-78.46308000
17.69095790,-78.46308000
17.69351790,-78.46308000
17.69607790,-78.46308000
17.69863790,-73.99212000
17.70119790,-73.99212000
17.70375790,-78.46308000
17.70631790,-73.99212000
17.70887790,-73.99212000
17.71143790,-73.99212000
17.71399790,-73.99212000
17.71655790,-73.99212000
17.71911790,-73.99212000
17.72167790,-78.46308000
17.72423790,-73.99212000
17.72679790,-78.46308000
17.72935790,-73.99212000
17.73191790,-78.46308000
17.73447790,-78.46308000
17.73703790,-73.99212000
17.73959790,-78.46308000
17.74215790,-73.99212000
17.74471790,-73.99212000
17.74727790,-78.46308000
17.74983790,-78.46308000
17.75239790,-73.99212000
17.75495790,-73.99212000
17.75751790,-73.99212000
17.76007790,-73.99212000
17.76263790,-73.99212000
17.76519790,-73.99212000
17.76775790,-78.46308000
17.77031790,-73.99212000
17.77287790,-78.46308000
17.77543790,-73.99212000
17.77799790,-73.99212000
17.78055790,-78.46308000
17.78311790,-78.46308000
17.78567790,-73.99212000
17.78823790,-78.46308000
17.79079790,-78.46308000
17.79335790,-73.99212000
17.79591790,-73.99212000
17.79847790,-73.99212000
17.80103790,-78.46308000
17.80359790,-78.46308000
17.80615790,-73.99212000
17.80871790,-73.99212000
17.81127790,-73.99212000
17.81383790,-73.99212000
17.81639790,-73.99212000
17.81895790,-73.99212000
17.82151790,-78.46308000
17.82407790,-78.46308000
17.82663790,-73.99212000
17.82919790,-73.99212000
17.83175790,-78.46308000
17.83431790,-78.46308000
17.83687790,-78.46308000
17.83943790,-78.46308000
17.84199790,-78.46308000
17.84455790,-78.46308000
17.84711790,-78.46308000
17.84967790,-73.99212000
17.85223790,-78.46308000
17.85479790,-78.46308000
17.85735790,-78.46308000
17.85991790,-78.46308000
17.86247790,-73.99212000
17.86503790,-78.46308000
17.86759790,-73.99212000
17.87015790,-73.99212000
17.87271789,-78.46308000
17.87527789,-78.46308000
17.87783789,-78.46308000
17.88039789,-78.46308000
17.88295789,-78.46308000
17.88551789,-78.46308000
17.88807789,-73.99212000
17.89063789,-78.46308000
17.89319789,-78.46308000
17.89575789,-78.46308000
17.89831789,-73.99212000
17.90087789,-73.99212000
17.90343789,-78.46308000
17.90599789,-73.99212000
17.90855789,-78.46308000
17.91111789,-78.46308000
17.91367789,-78.46308000
17.91623789,-78.46308000
17.91879789,-78.46308000
17.92135789,-78.46308000
17.92391789,-73.99212000
17.92647789,-78.46308000
17.92903789,-73.99212000
17.93159789,-73.99212000
17.93415789,-78.46308000
17.93671789,-78.46308000
17.93927789,-73.99212000
17.94183789,-78.46308000
17.94439789,-78.46308000
17.94695789,-78.46308000
17.94951789,-78.46308000
17.95207789,-78.46308000
17.95463789,-78.46308000
17.95719789,-78.46308000
17.95975789,-78.46308000
17.96231789,-78.46308000
17.96487789,-78.46308000
17.96743789,-78.46308000
17.96999789,-78.46308000
17.97255789,-73.99212000
17.97511789,-78.46308000
17.97767789,-78.46308000
17.98023789,-78.46308000
17.98279789,-78.46308000
17.98535789,-78.46308000
17.98791789,-78.46308000
17.99047789,-78.46308000
17.99303789,-78.46308000
17.99559789,-78.46308000
17.99815789,-73.99212000
18.00071789,-78.46308000
18.00327789,-78.46308000
18.00583789,-78.46308000
18.00839789,-78.46308000
18.01095789,-78.46308000
18.01351789,-78.46308000
18.01607789,-78.46308000
18.01863789,-73.99212000
18.02119789,-78.46308000
18.02375789,-78.46308000
18.02631789,-78.46308000
18.02887789,-78.46308000
18.03143789,-78.46308000
18.03399789,-78.46308000
18.03655789,-78.46308000
18.03911789,-78.46308000
18.04167789,-78.46308000
18.04423789,-78.46308000
18.04679789,-78.46308000
18.04935789,-78.46308000
18.05191789,-78.46308000
18.05447789,-78.46308000
18.05703789,-78.46308000
18.05959789,-78.46308000
18.06215789,-78.46308000
18.06471789,-78.46308000
18.06727789,-78.46308000
18.06983789,-78.46308000
18.07239789,-78.46308000
18.07495789,-78.46308000
18.07751789,-78.46308000
18.08007789,-78.46308000
18.08263789,-78.46308000
18.08519789,-78.46308000
18.08775789,-78.46308000
18.09031789,-78.46308000
18.09287789,-78.46308000
18.09543789,-78.46308000
18.09799789,-78.46308000
18.10055789,-78.46308000
18.10311789,-78.46308000
18.10567789,-78.46308000
18.10823789,-78.46308000
18.11079789,-78.46308000
18.11335789,-78.46308000
18.11591789,-78.46308000
18.11847789,-78.46308000
18.12103789,-78.46308000
18.12359789,-78.46308000
18.12615789,-78.46308000
18.12871789,-73.99212000
18.13127789,-78.46308000
18.13383789,-78.46308000
18.13639789,-78.46308000
18.13895789,-78.46308000
18.14151789,-73.99212000
18.14407789,-78.46308000
18.14663789,-78.46308000
18.14919789,-78.46308000
18.15175789,-78.46308000
18.15431789,-78.46308000
18.15687789,-78.46308000
18.15943789,-78.46308000
18.16199789,-78.46308000
18.16455789,-78.46308000
18.16711789,-78.46308000
18.16967789,-78.46308000
18.17223789,-78.46308000
18.17479789,-78.46308000
18.17735789,-78.46308000
18.17991789,-78.46308000
18.18247789,-78.46308000
18.18503789,-78.46308000
18.18759789,-78.46308000
18.19015789,-78.46308000
18.19271789,-78.46308000
18.19527789,-78.46308000
18.19783789,-78.46308000
18.20039789,-78.46308000
18.20295789,-78.46308000
18.20551789,-78.46308000
18.20807789,-78.46308000
18.21063789,-78.46308000
18.21319789,-78.46308000
18.21575789,-78.46308000
18.21831789,-78.46308000
18.22087789,-78.46308000
18.22343789,-78.46308000
18.22599789,-78.46308000
18.22855789,-78.46308000
18.23111789,-78.46308000
18.23367789,-78.46308000
18.23623789,-73.99212000
18.23879789,-78.46308000
18.24135789,-78.46308000
18.24391789,-78.46308000
18.24647789,-78.46308000
18.24903789,-78.46308000
18.25159789,-78.46308000
18.25415789,-78.46308000
18.25671789,-78.46308000
18.25927789,-78.46308000
18.26183789,-78.46308000
18.26439789,-78.46308000
18.26695789,-78.46308000
18.26951789,-78.46308000
18.27207789,-78.46308000
18.27463789,-78.46308000
18.27719789,-78.46308000
18.27975789,-78.46308000
18.28231789,-78.46308000
18.28487789,-78.46308000
18.28743789,-78.46308000
18.28999789,-78.46308000
18.29255789,-78.46308000
18.29511789,-78.46308000
18.29767789,-78.46308000
18.30023789,-78.46308000
18.30279789,-78.46308000
18.30535789,-78.46308000
18.30791789,-78.46308000
18.31047789,-78.46308000
18.31303789,-78.46308000
18.31559789,-78.46308000
18.31815789,-78.46308000
18.32071789,-78.46308000
18.32327789,-78.46308000
18.32583789,-78.46308000
18.32839789,-78.46308000
18.33095789,-78.46308000
18.33351789,-78.46308000
18.33607789,-78.46308000
18.33863789,-78.46308000
18.34119789,-78.46308000
18.34375789,-78.46308000
18.34631789,-78.46308000
18.34887789,-78.46308000
18.35143789,-78.46308000
18.35399789,-78.46308000
18.35655789,-78.46308000
18.35911789,-78.46308000
18.36167789,-73.99212000
18.36423789,-78.46308000
18.36679789,-78.46308000
18.36935789,-78.46308000
18.37191789,-78.46308000
18.37447789,-78.46308000
18.37703789,-78.46308000
18.37959789,-73.99212000
18.38215789,-78.46308000
18.38471789,-78.46308000
18.38727789,-78.46308000
18.38983789,-78.46308000
18.39239789,-78.46308000
18.39495789,-78.46308000
18.39751789,-78.46308000
18.40007789,-78.46308000
18.40263789,-78.46308000
18.40519789,-78.46308000
18.40775789,-78.46308000
18.41031789,-73.99212000
18.41287789,-73.99212000
18.41543789,-73.99212000
18.41799789,-73.99212000
18.42055789,-73.99212000
18.42311789,-78.46308000
18.42567789,-73.99212000
18.42823789,-78.46308000
18.43079789,-78.46308000
18.43335789,-78.46308000
18.43591789,-73.99212000
18.43847789,-78.46308000
18.44103789,-73.99212000
18.44359789,-78.46308000
18.44615789,-78.46308000
18.44871789,-78.46308000
18.45127789,-78.46308000
18.45383789,-78.46308000
18.45639789,-78.46308000
18.45895789,-78.46308000
18.46151789,-78.46308000
18.46407789,-78.46308000
18.46663789,-73.99212000
18.46919789,-73.99212000
18.47175789,-73.99212000
18.47431789,-73.99212000
18.47687789,-73.99212000
18.47943789,-73.99212000
18.48199789,-73.99212000
18.48455789,-78.46308000
18.48711789,-73.99212000
18.48967789,-73.99212000
18.49223789,-73.99212000
18.49479789,-73.99212000
18.49735789,-78.46308000
18.49991789,-78.46308000
18.50247789,-73.99212000
18.50503789,-78.46308000
18.50759789,-73.99212000
18.51015789,-73.99212000
18.51271789,-73.99212000
18.51527789,-73.99212000
18.51783789,-73.99212000
18.52039789,-73.99212000
18.52295789,-73.99212000
18.52551789,-73.99212000
18.52807789,-73.99212000
18.53063789,-73.99212000
18.53319789,-73.99212000
18.53575789,-69.50591000
18.53831789,-78.46308000
18.54087789,-78.46308000
18.54343789,-78.46308000
18.54599789,-73.99212000
18.54855789,-73.99212000
18.55111789,-73.99212000
18.55367789,-73.99212000
18.55623789,-73.99212000
18.55879789,-73.99212000
18.56135789,-73.99212000
18.56391789,-73.99212000
18.56647789,-78.46308000
18.56903789,-73.99212000
18.57159789,-73.99212000
18.57415789,-78.46308000
18.57671789,-78.46308000
18.57927789,-73.99212000
18.58183789,-73.99212000
18.58439789,-73.99212000
18.58695789,-73.99212000
18.58951789,-73.99212000
18.59207789,-73.99212000
18.59463789,-73.99212000
18.59719789,-73.99212000
18.59975789,-73.99212000
18.60231789,-73.99212000
18.60487789,-78.46308000
18.60743789,-73.99212000
18.60999789,-78.46308000
18.61255789,-73.99212000
18.61511789,-78.46308000
18.61767789,-73.99212000
18.62023789,-73.99212000
18.62279789,-73.99212000
18.62535789,-73.99212000
18.62791789,-73.99212000
18.63047789,-73.99212000
18.63303789,-73.99212000
18.63559789,-73.99212000
18.63815789,-73.99212000
18.64071789,-73.99212000
18.64327789,-73.99212000
18.64583789,-73.99212000
18.64839789,-73.99212000
18.65095789,-69.50591000
18.65351789,-69.50591000
18.65607789,-69.50591000
18.65863789,-73.99212000
18.66119789,-73.99212000
18.66375789,-73.99212000
18.66631789,-78.46308000
18.66887789,-73.99212000
18.67143789,-73.99212000
18.67399789,-73.99212000
18.67655789,-73.99212000
18.67911789,-73.99212000
