Time,Invert B
(ms),(mV)

-1.32165605,-78.46308000
-1.31909605,-73.99212000
-1.31653605,-73.99212000
-1.31397605,-73.99212000
-1.31141605,-73.99212000
-1.30885605,-73.99212000
-1.30629605,-73.99212000
-1.30373605,-69.50591000
-1.30117605,-78.46308000
-1.29861605,-69.50591000
-1.29605605,-73.99212000
-1.29349605,-78.46308000
-1.29093605,-73.99212000
-1.28837605,-73.99212000
-1.28581605,-73.99212000
-1.28325605,-73.99212000
-1.28069605,-78.46308000
-1.27813605,-73.99212000
-1.27557605,-78.46308000
-1.27301605,-73.99212000
-1.27045605,-73.99212000
-1.26789605,-73.99212000
-1.26533605,-78.46308000
-1.26277605,-73.99212000
-1.26021605,-73.99212000
-1.25765605,-73.99212000
-1.25509605,-73.99212000
-1.25253605,-73.99212000
-1.24997605,-73.99212000
-1.24741605,-73.99212000
-1.24485605,-73.99212000
-1.24229605,-73.99212000
-1.23973605,-73.99212000
-1.23717605,-73.99212000
-1.23461605,-73.99212000
-1.23205605,-73.99212000
-1.22949605,-69.50591000
-1.22693605,-73.99212000
-1.22437605,-69.50591000
-1.22181605,-73.99212000
-1.21925605,-69.50591000
-1.21669605,-73.99212000
-1.21413605,-73.99212000
-1.21157605,-69.50591000
-1.20901605,-69.50591000
-1.20645605,-73.99212000
-1.20389605,-69.50591000
-1.20133605,-69.50591000
-1.19877605,-69.50591000
-1.19621605,-69.50591000
-1.19365605,-69.50591000
-1.19109605,-69.50591000
-1.18853605,-69.50591000
-1.18597605,-69.50591000
-1.18341605,-69.50591000
-1.18085605,-69.50591000
-1.17829605,-69.50591000
-1.17573605,-69.50591000
-1.17317605,-69.50591000
-1.17061605,-69.50591000
-1.16805605,-69.50591000
-1.16549605,-69.50591000
-1.16293605,-69.50591000
-1.16037605,-69.50591000
-1.15781605,-69.50591000
-1.15525605,-69.50591000
-1.15269605,-69.50591000
-1.15013605,-69.50591000
-1.14757605,-69.50591000
-1.14501605,-69.50591000
-1.14245605,-69.50591000
-1.13989605,-69.50591000
-1.13733605,-69.50591000
-1.13477605,-69.50591000
-1.13221605,-69.50591000
-1.12965605,-69.50591000
-1.12709605,-69.50591000
-1.12453605,-69.50591000
-1.12197605,-69.50591000
-1.11941605,-69.50591000
-1.11685605,-69.50591000
-1.11429605,-69.50591000
-1.11173605,-69.50591000
-1.10917605,-69.50591000
-1.10661605,-69.50591000
-1.10405605,-69.50591000
-1.10149605,-69.50591000
-1.09893605,-69.50591000
-1.09637605,-69.50591000
-1.09381605,-69.50591000
-1.09125605,-69.50591000
-1.08869605,-69.50591000
-1.08613605,-69.50591000
-1.08357605,-69.50591000
-1.08101605,-69.50591000
-1.07845605,-69.50591000
-1.07589605,-69.50591000
-1.07333605,-69.50591000
-1.07077605,-69.50591000
-1.06821605,-69.50591000
-1.06565605,-69.50591000
-1.06309605,-69.50591000
-1.06053605,-69.50591000
-1.05797605,-69.50591000
-1.05541605,-73.99212000
-1.05285605,-69.50591000
-1.05029605,-69.50591000
-1.04773605,-69.50591000
-1.04517605,-73.99212000
-1.04261605,-69.50591000
-1.04005605,-69.50591000
-1.03749605,-73.99212000
-1.03493605,-69.50591000
-1.03237605,-69.50591000
-1.02981605,-73.99212000
-1.02725605,-69.50591000
-1.02469605,-73.99212000
-1.02213605,-69.50591000
-1.01957605,-69.50591000
-1.01701605,-73.99212000
-1.01445605,-73.99212000
-1.01189605,-73.99212000
-1.00933605,-69.50591000
-1.00677605,-73.99212000
-1.00421605,-73.99212000
-1.00165605,-73.99212000
-0.99909605,-69.50591000
-0.99653605,-69.50591000
-0.99397605,-73.99212000
-0.99141605,-73.99212000
-0.98885605,-69.50591000
-0.98629605,-73.99212000
-0.98373605,-73.99212000
-0.98117605,-69.50591000
-0.97861605,-69.50591000
-0.97605605,-73.99212000
-0.97349605,-69.50591000
-0.97093605,-69.50591000
-0.96837605,-73.99212000
-0.96581605,-69.50591000
-0.96325605,-69.50591000
-0.96069605,-69.50591000
-0.95813605,-69.50591000
-0.95557605,-69.50591000
-0.95301605,-73.99212000
-0.95045605,-69.50591000
-0.94789605,-73.99212000
-0.94533605,-69.50591000
-0.94277605,-73.99212000
-0.94021605,-73.99212000
-0.93765605,-73.99212000
-0.93509605,-73.99212000
-0.93253605,-73.99212000
-0.92997605,-69.50591000
-0.92741605,-69.50591000
-0.92485605,-69.50591000
-0.92229605,-69.50591000
-0.91973605,-69.50591000
-0.91717605,-69.50591000
-0.91461605,-73.99212000
-0.91205605,-69.50591000
-0.90949605,-73.99212000
-0.90693605,-73.99212000
-0.90437605,-73.99212000
-0.90181605,-69.50591000
-0.89925605,-69.50591000
-0.89669605,-69.50591000
-0.89413605,-69.50591000
-0.89157605,-73.99212000
-0.88901605,-73.99212000
-0.88645605,-73.99212000
-0.88389605,-69.50591000
-0.88133605,-73.99212000
-0.87877605,-73.99212000
-0.87621605,-73.99212000
-0.87365605,-73.99212000
-0.87109605,-73.99212000
-0.86853605,-73.99212000
-0.86597605,-73.99212000
-0.86341605,-73.99212000
-0.86085605,-69.50591000
-0.85829605,-69.50591000
-0.85573605,-73.99212000
-0.85317605,-69.50591000
-0.85061605,-73.99212000
-0.84805605,-73.99212000
-0.84549605,-73.99212000
-0.84293605,-73.99212000
-0.84037605,-73.99212000
-0.83781605,-73.99212000
-0.83525605,-73.99212000
-0.83269605,-73.99212000
-0.83013605,-69.50591000
-0.82757605,-73.99212000
-0.82501605,-69.50591000
-0.82245605,-69.50591000
-0.81989605,-73.99212000
-0.81733605,-69.50591000
-0.81477605,-69.50591000
-0.81221605,-87.40501000
-0.80965605,-65.03493000
-0.80709605,-78.46308000
-0.80453605,-100.81790000
-0.80197605,-123.17270000
-0.79941605,-141.07180000
-0.79685605,-150.01370000
-0.79429605,-158.95570000
-0.79173605,-167.89760000
-0.78917605,-176.83950000
-0.78661605,-181.31050000
-0.78405605,-190.26760000
-0.78149605,-194.73860000
-0.77893605,-199.20960000
-0.77637605,-208.15150000
-0.77381605,-208.15150000
-0.77125605,-212.62240000
-0.76869605,-221.56440000
-0.76613605,-221.56440000
-0.76357605,-226.03530000
-0.76101605,-230.50630000
-0.75845605,-230.50630000
-0.75589605,-230.50630000
-0.75333605,-234.97720000
-0.75077605,-239.44820000
-0.74821605,-239.44820000
-0.74565605,-239.44820000
-0.74309605,-239.44820000
-0.74053605,-239.44820000
-0.73797605,-239.44820000
-0.73541605,-243.91920000
-0.73285605,-243.91920000
-0.73029605,-243.91920000
-0.72773605,-239.44820000
-0.72517605,-239.44820000
-0.72261605,-239.44820000
-0.72005605,-239.44820000
-0.71749605,-239.44820000
-0.71493605,-239.44820000
-0.71237605,-239.44820000
-0.70981605,-234.97720000
-0.70725605,-230.50630000
-0.70469605,-230.50630000
-0.70213605,-230.50630000
-0.69957605,-230.50630000
-0.69701605,-226.03530000
-0.69445605,-226.03530000
-0.69189605,-221.56440000
-0.68933605,-221.56440000
-0.68677605,-212.62240000
-0.68421605,-212.62240000
-0.68165605,-208.15150000
-0.67909605,-208.15150000
-0.67653605,-203.68050000
-0.67397605,-203.68050000
-0.67141605,-199.20960000
-0.66885605,-194.73860000
-0.66629605,-194.73860000
-0.66373605,-190.26760000
-0.66117605,-190.26760000
-0.65861605,-185.78140000
-0.65605605,-181.31050000
-0.65349605,-176.83950000
-0.65093605,-176.83950000
-0.64837605,-172.36850000
-0.64581605,-167.89760000
-0.64325605,-167.89760000
-0.64069605,-158.95570000
-0.63813605,-158.95570000
-0.63557605,-158.95570000
-0.63301605,-154.48470000
-0.63045605,-150.01370000
-0.62789605,-145.54280000
-0.62533605,-141.07180000
-0.62277605,-141.07180000
-0.62021605,-136.60080000
-0.61765605,-136.60080000
-0.61509605,-132.12990000
-0.61253605,-132.12990000
-0.60997605,-123.17270000
-0.60741605,-123.17270000
-0.60485605,-118.70170000
-0.60229605,-114.23080000
-0.59973605,-114.23080000
-0.59717605,-114.23080000
-0.59461605,-105.28880000
-0.59205605,-105.28880000
-0.58949605,-100.81790000
-0.58693605,-100.81790000
-0.58437605,-96.34693000
-0.58181605,-96.34693000
-0.57925605,-91.87596000
-0.57669605,-87.40501000
-0.57413605,-87.40501000
-0.57157605,-82.93404000
-0.56901605,-82.93404000
-0.56645605,-78.46308000
-0.56389605,-78.46308000
-0.56133605,-73.99212000
-0.55877605,-69.50591000
-0.55621605,-69.50591000
-0.55365605,-69.50591000
-0.55109605,-69.50591000
-0.54853605,-65.03493000
-0.54597605,-60.56398000
-0.54341605,-60.56398000
-0.54085605,-56.09302000
-0.53829605,-56.09302000
-0.53573605,-51.62206000
-0.53317605,-51.62206000
-0.53061605,-51.62206000
-0.52805605,-51.62206000
-0.52549605,-42.68013000
-0.52293605,-42.68013000
-0.52037605,-42.68013000
-0.51781605,-42.68013000
-0.51525605,-38.20917000
-0.51269605,-38.20917000
-0.51013605,-33.73821000
-0.50757605,-33.73821000
-0.50501605,-33.73821000
-0.50245605,-33.73821000
-0.49989605,-29.26725000
-0.49733605,-29.26725000
-0.49477605,-29.26725000
-0.49221605,-29.26725000
-0.48965605,-24.79629000
-0.48709605,-24.79629000
-0.48453605,-24.79629000
-0.48197605,-24.79629000
-0.47941605,-20.32533000
-0.47685605,-20.32533000
-0.47429605,-20.32533000
-0.47173605,-20.32533000
-0.46917605,-15.85437000
-0.46661605,-15.85437000
-0.46405605,-15.85437000
-0.46149605,-15.85437000
-0.45893605,-15.85437000
-0.45637605,-15.85437000
-0.45381605,-11.38340000
-0.45125605,-11.38340000
-0.44869605,-11.38340000
-0.44613605,-11.38340000
-0.44357605,-11.38340000
-0.44101605,-6.91244200
-0.43845605,-6.91244200
-0.43589605,-6.91244200
-0.43333605,-6.91244200
-0.43077605,-6.91244200
-0.42821605,-6.91244200
-0.42565605,-6.91244200
-0.42309605,-6.91244200
-0.42053605,-6.91244200
-0.41797605,-6.91244200
-0.41541605,-6.91244200
-0.41285605,-6.91244200
-0.41029605,-2.44148100
-0.40773605,-6.91244200
-0.40517605,-6.91244200
-0.40261605,-6.91244200
-0.40005605,-2.44148100
-0.39749605,-6.91244200
-0.39493605,-2.44148100
-0.39237605,-2.44148100
-0.38981605,-2.44148100
-0.38725605,2.02948100
-0.38469605,-2.44148100
-0.38213605,2.02948100
-0.37957605,2.02948100
-0.37701605,2.02948100
-0.37445605,-2.44148100
-0.37189605,2.02948100
-0.36933605,2.02948100
-0.36677605,-2.44148100
-0.36421605,-2.44148100
-0.36165605,-2.44148100
-0.35909605,-2.44148100
-0.35653605,-2.44148100
-0.35397605,-2.44148100
-0.35141605,-2.44148100
-0.34885605,-2.44148100
-0.34629605,-2.44148100
-0.34373605,-2.44148100
-0.34117605,-2.44148100
-0.33861605,-2.44148100
-0.33605605,2.02948100
-0.33349605,-2.44148100
-0.33093605,-2.44148100
-0.32837605,-2.44148100
-0.32581605,-2.44148100
-0.32325605,-6.91244200
-0.32069605,2.02948100
-0.31813605,-6.91244200
-0.31557605,-2.44148100
-0.31301605,-2.44148100
-0.31045605,-6.91244200
-0.30789605,-6.91244200
-0.30533605,-2.44148100
-0.30277605,-6.91244200
-0.30021605,-2.44148100
-0.29765605,-2.44148100
-0.29509605,-2.44148100
-0.29253605,-2.44148100
-0.28997605,60.16724000
-0.28741605,154.07270000
-0.28485605,239.05150000
-0.28229605,297.18920000
-0.27973605,346.38510000
-0.27717605,377.68180000
-0.27461605,404.52280000
-0.27205605,426.87760000
-0.26949605,449.24770000
-0.26693605,467.13150000
-0.26437605,480.54440000
-0.26181605,498.42830000
-0.25925605,Infinity
-0.25669605,Infinity
-0.25413605,Infinity
-0.25157605,Infinity
-0.24901605,Infinity
-0.24645605,Infinity
-0.24389605,Infinity
-0.24133605,Infinity
-0.23877605,Infinity
-0.23621605,Infinity
-0.23365605,Infinity
-0.23109605,Infinity
-0.22853605,Infinity
-0.22597605,Infinity
-0.22341605,Infinity
-0.22085605,Infinity
-0.21829605,Infinity
-0.21573605,Infinity
-0.21317605,Infinity
-0.21061605,Infinity
-0.20805605,Infinity
-0.20549605,Infinity
-0.20293605,Infinity
-0.20037605,Infinity
-0.19781605,Infinity
-0.19525605,Infinity
-0.19269605,Infinity
-0.19013605,Infinity
-0.18757605,Infinity
-0.18501605,Infinity
-0.18245605,Infinity
-0.17989605,Infinity
-0.17733605,Infinity
-0.17477605,Infinity
-0.17221605,Infinity
-0.16965605,Infinity
-0.16709605,Infinity
-0.16453605,Infinity
-0.16197605,Infinity
-0.15941605,Infinity
-0.15685605,Infinity
-0.15429605,Infinity
-0.15173605,498.42830000
-0.14917605,489.48630000
-0.14661605,485.01540000
-0.14405605,471.60250000
-0.14149605,462.66060000
-0.13893605,453.71870000
-0.13637605,449.24770000
-0.13381605,435.81950000
-0.13125605,426.87760000
-0.12869605,417.93570000
-0.12613605,408.99380000
-0.12357605,400.05190000
-0.12101605,386.63900000
-0.11845605,377.68180000
-0.11589605,368.73990000
-0.11333605,359.79790000
-0.11077605,350.85600000
-0.10821605,341.91410000
-0.10565605,332.97220000
-0.10309605,324.01500000
-0.10053605,310.60210000
-0.09797605,297.18920000
-0.09541605,292.71830000
-0.09285605,279.30540000
-0.09029605,274.83440000
-0.08773605,261.40630000
-0.08517605,256.93530000
-0.08261605,243.52240000
-0.08005605,234.58050000
-0.07749605,225.63860000
-0.07493605,216.69670000
-0.07237605,207.73950000
-0.06981605,198.79760000
-0.06725605,189.85560000
-0.06469606,180.91370000
-0.06213606,176.44270000
-0.05957606,167.50080000
-0.05701606,154.07270000
-0.05445606,149.60170000
-0.05189606,140.65980000
-0.04933606,131.71790000
-0.04677606,122.77600000
-0.04421606,118.30500000
-0.04165606,109.36310000
-0.03909606,100.42120000
-0.03653606,91.46397000
-0.03397606,82.52204000
-0.03141606,78.05109000
-0.02885606,69.10916000
-0.02629606,60.16724000
-0.02373606,55.69627000
-0.02117606,46.75435000
-0.01861606,42.28339000
-0.01605606,37.79717000
-0.01349606,28.85525000
-0.01093606,19.91333000
-0.00837606,15.44236000
-0.00581606,6.50044200
-0.00325606,2.02948100
-0.00069606,-6.91244200
0.00186394,-11.38340000
0.00442394,-15.85437000
0.00698394,-24.79629000
0.00954394,-29.26725000
0.01210394,-33.73821000
0.01466394,-42.68013000
0.01722394,-47.15109000
0.01978394,-51.62206000
0.02234394,-56.09302000
0.02490394,-60.56398000
0.02746394,-69.50591000
0.03002394,-73.99212000
0.03258394,-78.46308000
0.03514394,-82.93404000
0.03770394,-87.40501000
0.04026394,-96.34693000
0.04282394,-96.34693000
0.04538394,-100.81790000
0.04794394,-105.28880000
0.05050394,-109.75980000
0.05306394,-114.23080000
0.05562394,-118.70170000
0.05818394,-123.17270000
0.06074394,-127.64370000
0.06330394,-132.12990000
0.06586394,-136.60080000
0.06842394,-141.07180000
0.07098394,-141.07180000
0.07354394,-145.54280000
0.07610394,-150.01370000
0.07866394,-154.48470000
0.08122394,-158.95570000
0.08378394,-158.95570000
0.08634394,-163.42660000
0.08890394,-167.89760000
0.09146394,-167.89760000
0.09402394,-172.36850000
0.09658394,-176.83950000
0.09914394,-176.83950000
0.10170394,-181.31050000
0.10426394,-181.31050000
0.10682394,-185.78140000
0.10938394,-185.78140000
0.11194394,-194.73860000
0.11450394,-194.73860000
0.11706394,-194.73860000
0.11962394,-199.20960000
0.12218394,-203.68050000
0.12474394,-203.68050000
0.12730394,-203.68050000
0.12986394,-208.15150000
0.13242394,-208.15150000
0.13498394,-212.62240000
0.13754394,-212.62240000
0.14010394,-212.62240000
0.14266394,-217.09340000
0.14522394,-221.56440000
0.14778394,-221.56440000
0.15034394,-221.56440000
0.15290394,-221.56440000
0.15546394,-226.03530000
0.15802394,-226.03530000
0.16058394,-230.50630000
0.16314394,-230.50630000
0.16570394,-230.50630000
0.16826394,-230.50630000
0.17082394,-234.97720000
0.17338394,-234.97720000
0.17594394,-239.44820000
0.17850394,-239.44820000
0.18106394,-239.44820000
0.18362394,-239.44820000
0.18618394,-239.44820000
0.18874394,-243.91920000
0.19130394,-243.91920000
0.19386394,-243.91920000
0.19642394,-243.91920000
0.19898394,-248.40540000
0.20154394,-248.40540000
0.20410394,-248.40540000
0.20666394,-248.40540000
0.20922394,-248.40540000
0.21178394,-248.40540000
0.21434394,-248.40540000
0.21690394,-248.40540000
0.21946394,-252.87640000
0.22202394,-252.87640000
0.22458394,-252.87640000
0.22714394,-252.87640000
0.22970394,-252.87640000
0.23226394,-252.87640000
0.23482394,-252.87640000
0.23738394,-252.87640000
0.23994394,-252.87640000
0.24250394,-257.34730000
0.24506394,-257.34730000
0.24762394,-257.34730000
0.25018394,-257.34730000
0.25274394,-257.34730000
0.25530394,-257.34730000
0.25786394,-257.34730000
0.26042394,-257.34730000
0.26298394,-257.34730000
0.26554394,-257.34730000
0.26810394,-257.34730000
0.27066394,-257.34730000
0.27322394,-257.34730000
0.27578394,-257.34730000
0.27834394,-257.34730000
0.28090394,-257.34730000
0.28346394,-257.34730000
0.28602394,-257.34730000
0.28858394,-257.34730000
0.29114394,-257.34730000
0.29370394,-257.34730000
0.29626394,-257.34730000
0.29882394,-252.87640000
0.30138394,-257.34730000
0.30394394,-257.34730000
0.30650394,-257.34730000
0.30906394,-252.87640000
0.31162394,-252.87640000
0.31418394,-252.87640000
0.31674394,-252.87640000
0.31930394,-252.87640000
0.32186394,-252.87640000
0.32442394,-248.40540000
0.32698394,-248.40540000
0.32954394,-248.40540000
0.33210394,-248.40540000
0.33466394,-248.40540000
0.33722394,-248.40540000
0.33978394,-248.40540000
0.34234394,-248.40540000
0.34490394,-248.40540000
0.34746394,-248.40540000
0.35002394,-248.40540000
0.35258394,-248.40540000
0.35514394,-248.40540000
0.35770394,-248.40540000
0.36026394,-248.40540000
0.36282394,-248.40540000
0.36538394,-243.91920000
0.36794394,-248.40540000
0.37050394,-243.91920000
0.37306394,-243.91920000
0.37562394,-243.91920000
0.37818394,-243.91920000
0.38074394,-243.91920000
0.38330394,-243.91920000
0.38586394,-243.91920000
0.38842394,-239.44820000
0.39098394,-239.44820000
0.39354394,-239.44820000
0.39610394,-239.44820000
0.39866394,-239.44820000
0.40122394,-239.44820000
0.40378394,-239.44820000
0.40634394,-239.44820000
0.40890394,-234.97720000
0.41146394,-239.44820000
0.41402394,-234.97720000
0.41658394,-234.97720000
0.41914394,-234.97720000
0.42170394,-230.50630000
0.42426394,-230.50630000
0.42682394,-230.50630000
0.42938394,-230.50630000
0.43194394,-230.50630000
0.43450394,-230.50630000
0.43706394,-230.50630000
0.43962394,-230.50630000
0.44218394,-230.50630000
0.44474394,-230.50630000
0.44730394,-226.03530000
0.44986394,-226.03530000
0.45242394,-226.03530000
0.45498394,-226.03530000
0.45754394,-226.03530000
0.46010394,-226.03530000
0.46266394,-221.56440000
0.46522394,-221.56440000
0.46778394,-221.56440000
0.47034394,-221.56440000
0.47290394,-221.56440000
0.47546394,-221.56440000
0.47802394,-221.56440000
0.48058394,-221.56440000
0.48314394,-221.56440000
0.48570394,-217.09340000
0.48826394,-217.09340000
0.49082394,-217.09340000
0.49338394,-217.09340000
0.49594394,-212.62240000
0.49850394,-212.62240000
0.50106394,-212.62240000
0.50362394,-212.62240000
0.50618394,-212.62240000
0.50874394,-212.62240000
0.51130394,-212.62240000
0.51386394,-212.62240000
0.51642394,-212.62240000
0.51898394,-212.62240000
0.52154394,-212.62240000
0.52410394,-208.15150000
0.52666394,-208.15150000
0.52922394,-208.15150000
0.53178394,-208.15150000
0.53434394,-208.15150000
0.53690394,-203.68050000
0.53946394,-203.68050000
0.54202394,-203.68050000
0.54458394,-203.68050000
0.54714394,-203.68050000
0.54970394,-203.68050000
0.55226394,-199.20960000
0.55482394,-203.68050000
0.55738394,-203.68050000
0.55994394,-199.20960000
0.56250394,-199.20960000
0.56506394,-194.73860000
0.56762394,-194.73860000
0.57018394,-194.73860000
0.57274394,-194.73860000
0.57530394,-194.73860000
0.57786394,-194.73860000
0.58042394,-194.73860000
0.58298394,-194.73860000
0.58554394,-194.73860000
0.58810394,-194.73860000
0.59066394,-194.73860000
0.59322394,-190.26760000
0.59578394,-190.26760000
0.59834394,-185.78140000
0.60090394,-185.78140000
0.60346394,-185.78140000
0.60602394,-185.78140000
0.60858394,-185.78140000
0.61114394,-185.78140000
0.61370394,-185.78140000
0.61626394,-185.78140000
0.61882394,-185.78140000
0.62138394,-181.31050000
0.62394394,-181.31050000
0.62650394,-181.31050000
0.62906394,-181.31050000
0.63162394,-176.83950000
0.63418394,-176.83950000
0.63674394,-176.83950000
0.63930394,-176.83950000
0.64186394,-176.83950000
0.64442394,-176.83950000
0.64698394,-176.83950000
0.64954394,-176.83950000
0.65210394,-176.83950000
0.65466394,-176.83950000
0.65722394,-176.83950000
0.65978394,-176.83950000
0.66234394,-172.36850000
0.66490394,-172.36850000
0.66746394,-172.36850000
0.67002394,-172.36850000
0.67258394,-172.36850000
0.67514394,-167.89760000
0.67770394,-172.36850000
0.68026394,-167.89760000
0.68282394,-167.89760000
0.68538394,-167.89760000
0.68794394,-167.89760000
0.69050394,-167.89760000
0.69306394,-167.89760000
0.69562394,-167.89760000
0.69818394,-167.89760000
0.70074394,-167.89760000
0.70330394,-167.89760000
0.70586394,-163.42660000
0.70842394,-163.42660000
0.71098394,-163.42660000
0.71354394,-158.95570000
0.71610394,-158.95570000
0.71866394,-158.95570000
0.72122394,-158.95570000
0.72378394,-158.95570000
0.72634394,-158.95570000
0.72890394,-158.95570000
0.73146394,-158.95570000
0.73402394,-158.95570000
0.73658394,-158.95570000
0.73914394,-158.95570000
0.74170394,-158.95570000
0.74426394,-158.95570000
0.74682394,-158.95570000
0.74938394,-158.95570000
0.75194394,-154.48470000
0.75450394,-154.48470000
0.75706394,-154.48470000
0.75962394,-150.01370000
0.76218394,-150.01370000
0.76474394,-154.48470000
0.76730394,-154.48470000
0.76986394,-154.48470000
0.77242394,-150.01370000
0.77498394,-154.48470000
0.77754394,-150.01370000
0.78010394,-150.01370000
0.78266394,-150.01370000
0.78522394,-150.01370000
0.78778394,-150.01370000
0.79034394,-150.01370000
0.79290394,-150.01370000
0.79546394,-150.01370000
0.79802394,-150.01370000
0.80058394,-150.01370000
0.80314394,-150.01370000
0.80570394,-145.54280000
0.80826394,-145.54280000
0.81082394,-145.54280000
0.81338394,-145.54280000
0.81594394,-141.07180000
0.81850394,-141.07180000
0.82106394,-141.07180000
0.82362394,-141.07180000
0.82618394,-141.07180000
0.82874394,-141.07180000
0.83130394,-141.07180000
0.83386394,-141.07180000
0.83642394,-141.07180000
0.83898394,-141.07180000
0.84154394,-141.07180000
0.84410394,-141.07180000
0.84666394,-136.60080000
0.84922394,-141.07180000
0.85178394,-136.60080000
0.85434394,-141.07180000
0.85690394,-136.60080000
0.85946394,-136.60080000
0.86202394,-136.60080000
0.86458394,-136.60080000
0.86714394,-136.60080000
0.86970394,-136.60080000
0.87226394,-132.12990000
0.87482394,-136.60080000
0.87738394,-132.12990000
0.87994394,-132.12990000
0.88250394,-132.12990000
0.88506394,-132.12990000
0.88762394,-132.12990000
0.89018394,-132.12990000
0.89274394,-132.12990000
0.89530394,-132.12990000
0.89786394,-132.12990000
0.90042394,-132.12990000
0.90298394,-132.12990000
0.90554394,-132.12990000
0.90810394,-132.12990000
0.91066394,-123.17270000
0.91322394,-127.64370000
0.91578394,-123.17270000
0.91834394,-127.64370000
0.92090394,-127.64370000
0.92346394,-123.17270000
0.92602394,-123.17270000
0.92858394,-127.64370000
0.93114394,-123.17270000
0.93370394,-123.17270000
0.93626394,-123.17270000
0.93882394,-123.17270000
0.94138394,-123.17270000
0.94394394,-123.17270000
0.94650394,-123.17270000
0.94906394,-123.17270000
0.95162394,-123.17270000
0.95418394,-123.17270000
0.95674394,-123.17270000
0.95930394,-123.17270000
0.96186394,-123.17270000
0.96442394,-123.17270000
0.96698394,-123.17270000
0.96954394,-118.70170000
0.97210394,-118.70170000
0.97466394,-118.70170000
0.97722394,-118.70170000
0.97978394,-118.70170000
0.98234394,-118.70170000
0.98490394,-118.70170000
0.98746394,-118.70170000
0.99002394,-118.70170000
0.99258394,-118.70170000
0.99514394,-118.70170000
0.99770394,-118.70170000
1.00026394,-114.23080000
1.00282394,-114.23080000
1.00538394,-114.23080000
1.00794394,-114.23080000
1.01050394,-114.23080000
1.01306394,-114.23080000
1.01562394,-114.23080000
1.01818394,-114.23080000
1.02074394,-114.23080000
1.02330394,-114.23080000
1.02586394,-114.23080000
1.02842394,-114.23080000
1.03098394,-114.23080000
1.03354394,-114.23080000
1.03610394,-109.75980000
1.03866394,-109.75980000
1.04122394,-114.23080000
1.04378394,-114.23080000
1.04634394,-114.23080000
1.04890394,-105.28880000
1.05146394,-105.28880000
1.05402394,-109.75980000
1.05658394,-105.28880000
1.05914394,-105.28880000
1.06170394,-105.28880000
1.06426394,-105.28880000
1.06682394,-105.28880000
1.06938394,-105.28880000
1.07194394,-105.28880000
1.07450394,-105.28880000
1.07706394,-105.28880000
1.07962394,-105.28880000
1.08218394,-105.28880000
1.08474394,-105.28880000
1.08730394,-105.28880000
1.08986394,-105.28880000
1.09242394,-105.28880000
1.09498394,-105.28880000
1.09754394,-105.28880000
1.10010394,-105.28880000
1.10266394,-105.28880000
1.10522394,-105.28880000
1.10778394,-105.28880000
1.11034394,-100.81790000
1.11290394,-105.28880000
1.11546394,-105.28880000
1.11802394,-100.81790000
1.12058394,-100.81790000
1.12314394,-105.28880000
1.12570394,-100.81790000
1.12826394,-100.81790000
1.13082394,-105.28880000
1.13338394,-100.81790000
1.13594394,-100.81790000
1.13850394,-100.81790000
1.14106394,-100.81790000
1.14362394,-100.81790000
1.14618394,-100.81790000
1.14874394,-96.34693000
1.15130394,-96.34693000
1.15386394,-96.34693000
1.15642394,-96.34693000
1.15898394,-96.34693000
1.16154394,-96.34693000
1.16410394,-96.34693000
1.16666394,-96.34693000
1.16922394,-96.34693000
1.17178394,-96.34693000
1.17434394,-96.34693000
1.17690394,-96.34693000
1.17946394,-96.34693000
1.18202394,-96.34693000
1.18458394,-96.34693000
1.18714394,-96.34693000
1.18970394,-96.34693000
1.19226394,-96.34693000
1.19482394,-96.34693000
1.19738394,-96.34693000
1.19994394,-96.34693000
1.20250394,-96.34693000
1.20506394,-96.34693000
1.20762394,-96.34693000
1.21018394,-91.87596000
1.21274394,-91.87596000
1.21530394,-91.87596000
1.21786394,-91.87596000
1.22042394,-91.87596000
1.22298394,-91.87596000
1.22554394,-91.87596000
1.22810394,-91.87596000
1.23066394,-96.34693000
1.23322394,-91.87596000
1.23578394,-91.87596000
1.23834394,-87.40501000
1.24090394,-91.87596000
1.24346394,-91.87596000
1.24602394,-91.87596000
1.24858394,-87.40501000
1.25114394,-91.87596000
1.25370394,-87.40501000
1.25626394,-87.40501000
1.25882394,-87.40501000
1.26138394,-87.40501000
1.26394394,-91.87596000
1.26650394,-87.40501000
1.26906394,-87.40501000
1.27162394,-87.40501000
1.27418394,-87.40501000
1.27674394,-87.40501000
1.27930394,-87.40501000
1.28186394,-87.40501000
1.28442394,-87.40501000
1.28698394,-87.40501000
1.28954394,-87.40501000
1.29210394,-87.40501000
1.29466394,-87.40501000
1.29722394,-87.40501000
1.29978394,-87.40501000
1.30234394,-87.40501000
1.30490394,-87.40501000
1.30746394,-87.40501000
1.31002394,-87.40501000
1.31258394,-87.40501000
1.31514394,-87.40501000
1.31770394,-87.40501000
1.32026394,-87.40501000
1.32282394,-87.40501000
1.32538394,-87.40501000
1.32794394,-87.40501000
1.33050394,-87.40501000
1.33306394,-87.40501000
1.33562394,-87.40501000
1.33818394,-87.40501000
1.34074394,-87.40501000
1.34330394,-87.40501000
1.34586394,-87.40501000
1.34842394,-87.40501000
1.35098394,-87.40501000
1.35354394,-87.40501000
1.35610394,-87.40501000
1.35866394,-87.40501000
1.36122394,-87.40501000
1.36378394,-87.40501000
1.36634394,-87.40501000
1.36890394,-87.40501000
1.37146394,-87.40501000
1.37402394,-87.40501000
1.37658394,-87.40501000
1.37914394,-82.93404000
1.38170394,-87.40501000
1.38426394,-87.40501000
1.38682394,-82.93404000
1.38938394,-87.40501000
1.39194394,-87.40501000
1.39450394,-87.40501000
1.39706394,-87.40501000
1.39962394,-82.93404000
1.40218394,-82.93404000
1.40474394,-82.93404000
1.40730394,-82.93404000
1.40986394,-82.93404000
1.41242394,-82.93404000
1.41498394,-82.93404000
1.41754394,-82.93404000
1.42010394,-82.93404000
1.42266394,-87.40501000
1.42522394,-82.93404000
1.42778394,-82.93404000
1.43034394,-82.93404000
1.43290394,-82.93404000
1.43546394,-82.93404000
1.43802394,-82.93404000
1.44058394,-82.93404000
1.44314394,-78.46308000
1.44570394,-82.93404000
1.44826394,-82.93404000
1.45082394,-82.93404000
1.45338394,-82.93404000
1.45594394,-82.93404000
1.45850394,-82.93404000
1.46106394,-82.93404000
1.46362394,-78.46308000
1.46618394,-82.93404000
1.46874394,-82.93404000
1.47130394,-82.93404000
1.47386394,-78.46308000
1.47642394,-82.93404000
1.47898394,-78.46308000
1.48154394,-82.93404000
1.48410394,-82.93404000
1.48666394,-78.46308000
1.48922394,-82.93404000
1.49178394,-78.46308000
1.49434394,-78.46308000
1.49690394,-78.46308000
1.49946394,-78.46308000
1.50202394,-78.46308000
1.50458394,-78.46308000
1.50714394,-78.46308000
1.50970394,-82.93404000
1.51226394,-82.93404000
1.51482394,-78.46308000
1.51738394,-78.46308000
1.51994394,-78.46308000
1.52250394,-78.46308000
1.52506394,-82.93404000
1.52762394,-78.46308000
1.53018394,-78.46308000
1.53274394,-78.46308000
1.53530394,-78.46308000
1.53786394,-78.46308000
1.54042394,-78.46308000
1.54298394,-78.46308000
1.54554394,-78.46308000
1.54810394,-78.46308000
1.55066394,-78.46308000
1.55322394,-78.46308000
1.55578394,-78.46308000
1.55834394,-78.46308000
1.56090394,-78.46308000
1.56346394,-78.46308000
1.56602394,-78.46308000
1.56858394,-78.46308000
1.57114394,-78.46308000
1.57370394,-78.46308000
1.57626394,-78.46308000
1.57882394,-78.46308000
1.58138393,-78.46308000
1.58394393,-78.46308000
1.58650393,-78.46308000
1.58906393,-78.46308000
1.59162393,-78.46308000
1.59418393,-78.46308000
1.59674393,-78.46308000
1.59930393,-78.46308000
1.60186393,-78.46308000
1.60442393,-78.46308000
1.60698393,-78.46308000
1.60954393,-78.46308000
1.61210393,-78.46308000
1.61466393,-78.46308000
1.61722393,-78.46308000
1.61978393,-78.46308000
1.62234393,-78.46308000
1.62490393,-78.46308000
1.62746393,-78.46308000
1.63002393,-78.46308000
1.63258393,-73.99212000
1.63514393,-73.99212000
1.63770393,-73.99212000
1.64026393,-78.46308000
1.64282393,-73.99212000
1.64538393,-73.99212000
1.64794393,-73.99212000
1.65050393,-73.99212000
1.65306393,-73.99212000
1.65562393,-73.99212000
1.65818393,-78.46308000
1.66074393,-73.99212000
1.66330393,-78.46308000
1.66586393,-78.46308000
1.66842393,-73.99212000
1.67098393,-73.99212000
1.67354393,-78.46308000
1.67610393,-69.50591000
1.67866393,-73.99212000
1.68122393,-73.99212000
1.68378393,-73.99212000
1.68634393,-73.99212000
1.68890393,-73.99212000
1.69146393,-73.99212000
1.69402393,-73.99212000
1.69658393,-73.99212000
1.69914393,-73.99212000
1.70170393,-73.99212000
1.70426393,-73.99212000
1.70682393,-73.99212000
1.70938393,-73.99212000
1.71194393,-73.99212000
1.71450393,-73.99212000
1.71706393,-73.99212000
1.71962393,-69.50591000
1.72218393,-69.50591000
1.72474393,-73.99212000
1.72730393,-73.99212000
1.72986393,-73.99212000
1.73242393,-73.99212000
1.73498393,-73.99212000
1.73754393,-73.99212000
1.74010393,-69.50591000
1.74266393,-69.50591000
1.74522393,-73.99212000
1.74778393,-73.99212000
1.75034393,-73.99212000
1.75290393,-73.99212000
1.75546393,-73.99212000
1.75802393,-69.50591000
1.76058393,-73.99212000
1.76314393,-73.99212000
1.76570393,-69.50591000
1.76826393,-69.50591000
1.77082393,-73.99212000
1.77338393,-69.50591000
1.77594393,-73.99212000
1.77850393,-69.50591000
1.78106393,-73.99212000
1.78362393,-73.99212000
1.78618393,-73.99212000
1.78874393,-69.50591000
1.79130393,-69.50591000
1.79386393,-73.99212000
1.79642393,-73.99212000
1.79898393,-69.50591000
1.80154393,-73.99212000
1.80410393,-69.50591000
1.80666393,-69.50591000
1.80922393,-69.50591000
1.81178393,-73.99212000
1.81434393,-69.50591000
1.81690393,-69.50591000
1.81946393,-69.50591000
1.82202393,-69.50591000
1.82458393,-69.50591000
1.82714393,-73.99212000
1.82970393,-69.50591000
1.83226393,-73.99212000
1.83482393,-69.50591000
1.83738393,-69.50591000
1.83994393,-69.50591000
1.84250393,-69.50591000
1.84506393,-69.50591000
1.84762393,-69.50591000
1.85018393,-69.50591000
1.85274393,-69.50591000
1.85530393,-69.50591000
1.85786393,-69.50591000
1.86042393,-73.99212000
1.86298393,-73.99212000
1.86554393,-73.99212000
1.86810393,-69.50591000
1.87066393,-69.50591000
1.87322393,-69.50591000
1.87578393,-73.99212000
1.87834393,-69.50591000
1.88090393,-73.99212000
1.88346393,-69.50591000
1.88602393,-73.99212000
1.88858393,-69.50591000
1.89114393,-69.50591000
1.89370393,-69.50591000
1.89626393,-73.99212000
1.89882393,-73.99212000
1.90138393,-69.50591000
1.90394393,-69.50591000
1.90650393,-69.50591000
1.90906393,-69.50591000
1.91162393,-69.50591000
1.91418393,-73.99212000
1.91674393,-69.50591000
1.91930393,-69.50591000
1.92186393,-69.50591000
1.92442393,-69.50591000
1.92698393,-69.50591000
1.92954393,-69.50591000
1.93210393,-69.50591000
1.93466393,-69.50591000
1.93722393,-69.50591000
1.93978393,-69.50591000
1.94234393,-69.50591000
1.94490393,-69.50591000
1.94746393,-69.50591000
1.95002393,-69.50591000
1.95258393,-69.50591000
1.95514393,-69.50591000
1.95770393,-69.50591000
1.96026393,-69.50591000
1.96282393,-69.50591000
1.96538393,-69.50591000
1.96794393,-69.50591000
1.97050393,-69.50591000
1.97306393,-69.50591000
1.97562393,-69.50591000
1.97818393,-69.50591000
1.98074393,-69.50591000
1.98330393,-69.50591000
1.98586393,-69.50591000
1.98842393,-69.50591000
1.99098393,-69.50591000
1.99354393,-69.50591000
1.99610393,-69.50591000
1.99866393,-69.50591000
2.00122393,-69.50591000
2.00378393,-69.50591000
2.00634393,-69.50591000
2.00890393,-69.50591000
2.01146393,-69.50591000
2.01402393,-69.50591000
2.01658393,-69.50591000
2.01914393,-69.50591000
2.02170393,-69.50591000
2.02426393,-69.50591000
2.02682393,-69.50591000
2.02938393,-69.50591000
2.03194393,-69.50591000
2.03450393,-69.50591000
2.03706393,-69.50591000
2.03962393,-69.50591000
2.04218393,-69.50591000
2.04474393,-69.50591000
2.04730393,-69.50591000
2.04986393,-69.50591000
2.05242393,-69.50591000
2.05498393,-69.50591000
2.05754393,-69.50591000
2.06010393,-69.50591000
2.06266393,-69.50591000
2.06522393,-69.50591000
2.06778393,-69.50591000
2.07034393,-69.50591000
2.07290393,-69.50591000
2.07546393,-69.50591000
2.07802393,-69.50591000
2.08058393,-69.50591000
2.08314393,-69.50591000
2.08570393,-69.50591000
2.08826393,-69.50591000
2.09082393,-69.50591000
2.09338393,-69.50591000
2.09594393,-69.50591000
2.09850393,-69.50591000
2.10106393,-69.50591000
2.10362393,-69.50591000
2.10618393,-69.50591000
2.10874393,-69.50591000
2.11130393,-69.50591000
2.11386393,-69.50591000
2.11642393,-69.50591000
2.11898393,-69.50591000
2.12154393,-69.50591000
2.12410393,-69.50591000
2.12666393,-69.50591000
2.12922393,-69.50591000
2.13178393,-69.50591000
2.13434393,-69.50591000
2.13690393,-69.50591000
2.13946393,-69.50591000
2.14202393,-69.50591000
2.14458393,-69.50591000
2.14714393,-69.50591000
2.14970393,-69.50591000
2.15226393,-69.50591000
2.15482393,-69.50591000
2.15738393,-69.50591000
2.15994393,-69.50591000
2.16250393,-69.50591000
2.16506393,-69.50591000
2.16762393,-69.50591000
2.17018393,-69.50591000
2.17274393,-73.99212000
2.17530393,-73.99212000
2.17786393,-73.99212000
2.18042393,-73.99212000
2.18298393,-73.99212000
2.18554393,-73.99212000
2.18810393,-73.99212000
2.19066393,-73.99212000
2.19322393,-73.99212000
2.19578393,-73.99212000
2.19834393,-78.46308000
2.20090393,-78.46308000
2.20346393,-78.46308000
2.20602393,-78.46308000
2.20858393,-78.46308000
2.21114393,-78.46308000
2.21370393,-78.46308000
2.21626393,-78.46308000
2.21882393,-78.46308000
2.22138393,-78.46308000
2.22394393,-78.46308000
2.22650393,-78.46308000
2.22906393,-78.46308000
2.23162393,-82.93404000
2.23418393,-82.93404000
2.23674393,-82.93404000
2.23930393,-82.93404000
2.24186393,-82.93404000
2.24442393,-82.93404000
2.24698393,-82.93404000
2.24954393,-82.93404000
2.25210393,-82.93404000
2.25466393,-87.40501000
2.25722393,-87.40501000
2.25978393,-87.40501000
2.26234393,-87.40501000
2.26490393,-87.40501000
2.26746393,-87.40501000
2.27002393,-87.40501000
2.27258393,-87.40501000
2.27514393,-87.40501000
2.27770393,-87.40501000
2.28026393,-87.40501000
2.28282393,-87.40501000
2.28538393,-87.40501000
2.28794393,-87.40501000
2.29050393,-91.87596000
2.29306393,-96.34693000
2.29562393,-91.87596000
2.29818393,-96.34693000
2.30074393,-96.34693000
2.30330393,-96.34693000
2.30586393,-96.34693000
2.30842393,-96.34693000
2.31098393,-96.34693000
2.31354393,-96.34693000
2.31610393,-96.34693000
2.31866393,-96.34693000
2.32122393,-96.34693000
2.32378393,-100.81790000
2.32634393,-100.81790000
2.32890393,-100.81790000
2.33146393,-100.81790000
2.33402393,-100.81790000
2.33658393,-100.81790000
2.33914393,-100.81790000
2.34170393,-100.81790000
2.34426393,-100.81790000
2.34682393,-105.28880000
2.34938393,-105.28880000
2.35194393,-105.28880000
2.35450393,-105.28880000
2.35706393,-105.28880000
2.35962393,-105.28880000
2.36218393,-105.28880000
2.36474393,-105.28880000
2.36730393,-105.28880000
2.36986393,-105.28880000
2.37242393,-105.28880000
2.37498393,-105.28880000
2.37754393,-105.28880000
2.38010393,-105.28880000
2.38266393,-109.75980000
2.38522393,-105.28880000
2.38778393,-109.75980000
2.39034393,-109.75980000
2.39290393,-109.75980000
2.39546393,-109.75980000
2.39802393,-109.75980000
2.40058393,-109.75980000
2.40314393,-109.75980000
2.40570393,-114.23080000
2.40826393,-109.75980000
2.41082393,-114.23080000
2.41338393,-114.23080000
2.41594393,-114.23080000
2.41850393,-109.75980000
2.42106393,-114.23080000
2.42362393,-114.23080000
2.42618393,-114.23080000
2.42874393,-114.23080000
2.43130393,-114.23080000
2.43386393,-114.23080000
2.43642393,-114.23080000
2.43898393,-114.23080000
2.44154393,-114.23080000
2.44410393,-114.23080000
2.44666393,-114.23080000
2.44922393,-114.23080000
2.45178393,-114.23080000
2.45434393,-114.23080000
2.45690393,-114.23080000
2.45946393,-114.23080000
2.46202393,-114.23080000
2.46458393,-114.23080000
2.46714393,-114.23080000
2.46970393,-114.23080000
2.47226393,-114.23080000
2.47482393,-114.23080000
2.47738393,-114.23080000
2.47994393,-114.23080000
2.48250393,-114.23080000
2.48506393,-114.23080000
2.48762393,-114.23080000
2.49018393,-114.23080000
2.49274393,-114.23080000
2.49530393,-114.23080000
2.49786393,-114.23080000
2.50042393,-114.23080000
2.50298393,-114.23080000
2.50554393,-114.23080000
2.50810393,-114.23080000
2.51066393,-114.23080000
2.51322393,-114.23080000
2.51578393,-114.23080000
2.51834393,-114.23080000
2.52090393,-114.23080000
2.52346393,-114.23080000
2.52602393,-114.23080000
2.52858393,-114.23080000
2.53114393,-114.23080000
2.53370393,-114.23080000
2.53626393,-114.23080000
2.53882393,-114.23080000
2.54138393,-114.23080000
2.54394393,-109.75980000
2.54650393,-109.75980000
2.54906393,-114.23080000
2.55162393,-109.75980000
2.55418393,-109.75980000
2.55674393,-109.75980000
2.55930393,-114.23080000
2.56186393,-109.75980000
2.56442393,-109.75980000
2.56698393,-109.75980000
2.56954393,-109.75980000
2.57210393,-109.75980000
2.57466393,-109.75980000
2.57722393,-105.28880000
2.57978393,-109.75980000
2.58234393,-105.28880000
2.58490393,-109.75980000
2.58746393,-105.28880000
2.59002393,-105.28880000
2.59258393,-109.75980000
2.59514393,-105.28880000
2.59770393,-109.75980000
2.60026393,-105.28880000
2.60282393,-105.28880000
2.60538393,-105.28880000
2.60794393,-105.28880000
2.61050393,-105.28880000
2.61306393,-105.28880000
2.61562393,-105.28880000
2.61818393,-105.28880000
2.62074393,-105.28880000
2.62330393,-105.28880000
2.62586393,-105.28880000
2.62842393,-105.28880000
2.63098393,-105.28880000
2.63354393,-105.28880000
2.63610393,-105.28880000
2.63866393,-105.28880000
2.64122393,-100.81790000
2.64378393,-105.28880000
2.64634393,-105.28880000
2.64890393,-100.81790000
2.65146393,-100.81790000
2.65402393,-100.81790000
2.65658393,-100.81790000
2.65914393,-100.81790000
2.66170393,-100.81790000
2.66426393,-100.81790000
2.66682393,-100.81790000
2.66938393,-96.34693000
2.67194393,-96.34693000
2.67450393,-96.34693000
2.67706393,-96.34693000
2.67962393,-96.34693000
2.68218393,-96.34693000
2.68474393,-96.34693000
2.68730393,-96.34693000
2.68986393,-96.34693000
2.69242393,-96.34693000
2.69498393,-96.34693000
2.69754393,-96.34693000
2.70010393,-91.87596000
2.70266393,-91.87596000
2.70522393,-91.87596000
2.70778393,-87.40501000
2.71034393,-87.40501000
2.71290393,-87.40501000
2.71546393,-87.40501000
2.71802393,-87.40501000
2.72058393,-87.40501000
2.72314393,-87.40501000
2.72570393,-87.40501000
2.72826393,-87.40501000
2.73082393,-87.40501000
2.73338393,-82.93404000
2.73594393,-82.93404000
2.73850393,-82.93404000
2.74106393,-82.93404000
2.74362393,-78.46308000
2.74618393,-78.46308000
2.74874393,-78.46308000
2.75130393,-78.46308000
2.75386393,-78.46308000
2.75642393,-78.46308000
2.75898393,-78.46308000
2.76154393,-73.99212000
2.76410393,-78.46308000
2.76666393,-78.46308000
2.76922393,-73.99212000
2.77178393,-69.50591000
2.77434393,-73.99212000
2.77690393,-69.50591000
2.77946393,-69.50591000
2.78202393,-69.50591000
2.78458393,-69.50591000
2.78714393,-69.50591000
2.78970393,-65.03493000
2.79226393,-65.03493000
2.79482393,-60.56398000
2.79738393,-60.56398000
2.79994393,-60.56398000
2.80250393,-60.56398000
2.80506393,-60.56398000
2.80762393,-60.56398000
2.81018393,-60.56398000
2.81274393,-60.56398000
2.81530393,-56.09302000
2.81786393,-56.09302000
2.82042393,-56.09302000
2.82298393,-51.62206000
2.82554393,-51.62206000
2.82810393,-51.62206000
2.83066393,-51.62206000
2.83322393,-51.62206000
2.83578393,-51.62206000
2.83834393,-51.62206000
2.84090393,-51.62206000
2.84346393,-47.15109000
2.84602393,-47.15109000
2.84858393,-47.15109000
2.85114393,-47.15109000
2.85370393,-42.68013000
2.85626393,-42.68013000
2.85882393,-42.68013000
2.86138393,-42.68013000
2.86394393,-42.68013000
2.86650393,-42.68013000
2.86906393,-42.68013000
2.87162393,-42.68013000
2.87418393,-42.68013000
2.87674393,-38.20917000
2.87930393,-38.20917000
2.88186393,-33.73821000
2.88442393,-33.73821000
2.88698393,-38.20917000
2.88954393,-33.73821000
2.89210393,-33.73821000
2.89466393,-33.73821000
2.89722393,-33.73821000
2.89978393,-33.73821000
2.90234393,-33.73821000
2.90490393,-33.73821000
2.90746393,-33.73821000
2.91002393,-33.73821000
2.91258393,-29.26725000
2.91514393,-29.26725000
2.91770393,-33.73821000
2.92026393,-29.26725000
2.92282393,-29.26725000
2.92538393,-29.26725000
2.92794393,-29.26725000
2.93050393,-29.26725000
2.93306393,-29.26725000
2.93562393,-29.26725000
2.93818393,-29.26725000
2.94074393,-24.79629000
2.94330393,-24.79629000
2.94586393,-24.79629000
2.94842393,-24.79629000
2.95098393,-24.79629000
2.95354393,-24.79629000
2.95610393,-24.79629000
2.95866393,-24.79629000
2.96122393,-24.79629000
2.96378393,-24.79629000
2.96634393,-24.79629000
2.96890393,-24.79629000
2.97146393,-24.79629000
2.97402393,-24.79629000
2.97658393,-24.79629000
2.97914393,-24.79629000
2.98170393,-24.79629000
2.98426393,-24.79629000
2.98682393,-24.79629000
2.98938393,-20.32533000
2.99194393,-20.32533000
2.99450393,-24.79629000
2.99706393,-20.32533000
2.99962393,-24.79629000
3.00218393,-20.32533000
3.00474393,-20.32533000
3.00730393,-20.32533000
3.00986393,-24.79629000
3.01242393,-20.32533000
3.01498393,-24.79629000
3.01754393,-20.32533000
3.02010393,-20.32533000
3.02266393,-20.32533000
3.02522393,-24.79629000
3.02778393,-20.32533000
3.03034393,-20.32533000
3.03290393,-20.32533000
3.03546393,-20.32533000
3.03802393,-20.32533000
3.04058393,-20.32533000
3.04314393,-20.32533000
3.04570393,-20.32533000
3.04826393,-20.32533000
3.05082393,-20.32533000
3.05338393,-20.32533000
3.05594393,-20.32533000
3.05850393,-20.32533000
3.06106393,-20.32533000
3.06362393,-20.32533000
3.06618393,-20.32533000
3.06874393,-20.32533000
3.07130393,-20.32533000
3.07386393,-20.32533000
3.07642393,-20.32533000
3.07898393,-24.79629000
3.08154393,-24.79629000
3.08410393,-24.79629000
3.08666393,-20.32533000
3.08922393,-20.32533000
3.09178393,-20.32533000
3.09434393,-24.79629000
3.09690393,-20.32533000
3.09946393,-24.79629000
3.10202393,-24.79629000
3.10458393,-20.32533000
3.10714393,-20.32533000
3.10970393,-20.32533000
3.11226393,-20.32533000
3.11482393,-20.32533000
3.11738393,-20.32533000
3.11994393,-24.79629000
3.12250393,-20.32533000
3.12506393,-24.79629000
3.12762393,-24.79629000
3.13018393,-24.79629000
3.13274393,-24.79629000
3.13530393,-24.79629000
3.13786393,-24.79629000
3.14042393,-24.79629000
3.14298393,-24.79629000
3.14554393,-24.79629000
3.14810393,-24.79629000
3.15066393,-24.79629000
3.15322393,-24.79629000
3.15578393,-24.79629000
3.15834393,-24.79629000
3.16090393,-24.79629000
3.16346393,-24.79629000
3.16602393,-29.26725000
3.16858393,-24.79629000
3.17114393,-24.79629000
3.17370393,-24.79629000
3.17626393,-24.79629000
3.17882393,-24.79629000
3.18138393,-29.26725000
3.18394393,-29.26725000
3.18650393,-24.79629000
3.18906393,-24.79629000
3.19162393,-29.26725000
3.19418393,-29.26725000
3.19674393,-24.79629000
3.19930393,-29.26725000
3.20186393,-29.26725000
3.20442393,-29.26725000
3.20698393,-29.26725000
3.20954393,-29.26725000
3.21210393,-29.26725000
3.21466393,-33.73821000
3.21722393,-33.73821000
3.21978393,-33.73821000
3.22234393,-33.73821000
3.22490393,-29.26725000
3.22746392,-33.73821000
3.23002392,-33.73821000
3.23258392,-33.73821000
3.23514392,-33.73821000
3.23770392,-33.73821000
3.24026392,-33.73821000
3.24282392,-33.73821000
3.24538392,-33.73821000
3.24794392,-33.73821000
3.25050392,-33.73821000
3.25306392,-33.73821000
3.25562392,-33.73821000
3.25818392,-33.73821000
3.26074392,-33.73821000
3.26330392,-33.73821000
3.26586392,-33.73821000
3.26842392,-33.73821000
3.27098392,-33.73821000
3.27354392,-33.73821000
3.27610392,-38.20917000
3.27866392,-38.20917000
3.28122392,-33.73821000
3.28378392,-38.20917000
3.28634392,-33.73821000
3.28890392,-38.20917000
3.29146392,-38.20917000
3.29402392,-38.20917000
3.29658392,-42.68013000
3.29914392,-42.68013000
3.30170392,-42.68013000
3.30426392,-42.68013000
3.30682392,-38.20917000
3.30938392,-42.68013000
3.31194392,-42.68013000
3.31450392,-42.68013000
3.31706392,-42.68013000
3.31962392,-42.68013000
3.32218392,-42.68013000
3.32474392,-42.68013000
3.32730392,-42.68013000
3.32986392,-42.68013000
3.33242392,-47.15109000
3.33498392,-47.15109000
3.33754392,-42.68013000
3.34010392,-47.15109000
3.34266392,-47.15109000
3.34522392,-42.68013000
3.34778392,-47.15109000
3.35034392,-47.15109000
3.35290392,-47.15109000
3.35546392,-47.15109000
3.35802392,-51.62206000
3.36058392,-47.15109000
3.36314392,-51.62206000
3.36570392,-51.62206000
3.36826392,-51.62206000
3.37082392,-51.62206000
3.37338392,-51.62206000
3.37594392,-51.62206000
3.37850392,-51.62206000
3.38106392,-51.62206000
3.38362392,-51.62206000
3.38618392,-51.62206000
3.38874392,-51.62206000
3.39130392,-51.62206000
3.39386392,-51.62206000
3.39642392,-51.62206000
3.39898392,-56.09302000
3.40154392,-51.62206000
3.40410392,-51.62206000
3.40666392,-51.62206000
3.40922392,-56.09302000
3.41178392,-56.09302000
3.41434392,-56.09302000
3.41690392,-56.09302000
3.41946392,-56.09302000
3.42202392,-56.09302000
3.42458392,-60.56398000
3.42714392,-56.09302000
3.42970392,-60.56398000
3.43226392,-60.56398000
3.43482392,-60.56398000
3.43738392,-60.56398000
3.43994392,-60.56398000
3.44250392,-60.56398000
3.44506392,-60.56398000
3.44762392,-60.56398000
3.45018392,-60.56398000
3.45274392,-60.56398000
3.45530392,-60.56398000
3.45786392,-60.56398000
3.46042392,-60.56398000
3.46298392,-60.56398000
3.46554392,-60.56398000
3.46810392,-60.56398000
3.47066392,-65.03493000
3.47322392,-60.56398000
3.47578392,-60.56398000
3.47834392,-65.03493000
3.48090392,-65.03493000
3.48346392,-65.03493000
3.48602392,-60.56398000
3.48858392,-65.03493000
3.49114392,-65.03493000
3.49370392,-65.03493000
3.49626392,-60.56398000
3.49882392,-65.03493000
3.50138392,-65.03493000
3.50394392,-65.03493000
3.50650392,-65.03493000
3.50906392,-65.03493000
3.51162392,-65.03493000
3.51418392,-65.03493000
3.51674392,-69.50591000
3.51930392,-69.50591000
3.52186392,-69.50591000
3.52442392,-69.50591000
3.52698392,-65.03493000
3.52954392,-65.03493000
3.53210392,-65.03493000
3.53466392,-69.50591000
3.53722392,-65.03493000
3.53978392,-69.50591000
3.54234392,-69.50591000
3.54490392,-69.50591000
3.54746392,-69.50591000
3.55002392,-69.50591000
3.55258392,-69.50591000
3.55514392,-69.50591000
3.55770392,-69.50591000
3.56026392,-69.50591000
3.56282392,-69.50591000
3.56538392,-69.50591000
3.56794392,-69.50591000
3.57050392,-69.50591000
3.57306392,-69.50591000
3.57562392,-69.50591000
3.57818392,-69.50591000
3.58074392,-69.50591000
3.58330392,-69.50591000
3.58586392,-69.50591000
3.58842392,-69.50591000
3.59098392,-69.50591000
3.59354392,-69.50591000
3.59610392,-69.50591000
3.59866392,-69.50591000
3.60122392,-69.50591000
3.60378392,-69.50591000
3.60634392,-69.50591000
3.60890392,-69.50591000
3.61146392,-69.50591000
3.61402392,-69.50591000
3.61658392,-69.50591000
3.61914392,-69.50591000
3.62170392,-69.50591000
3.62426392,-69.50591000
3.62682392,-69.50591000
3.62938392,-69.50591000
3.63194392,-69.50591000
3.63450392,-69.50591000
3.63706392,-69.50591000
3.63962392,-69.50591000
3.64218392,-69.50591000
3.64474392,-69.50591000
3.64730392,-69.50591000
3.64986392,-69.50591000
3.65242392,-69.50591000
3.65498392,-73.99212000
3.65754392,-69.50591000
3.66010392,-69.50591000
3.66266392,-69.50591000
3.66522392,-69.50591000
3.66778392,-69.50591000
3.67034392,-69.50591000
3.67290392,-69.50591000
3.67546392,-69.50591000
3.67802392,-69.50591000
3.68058392,-69.50591000
3.68314392,-69.50591000
3.68570392,-69.50591000
3.68826392,-69.50591000
3.69082392,-69.50591000
3.69338392,-69.50591000
3.69594392,-69.50591000
3.69850392,-69.50591000
3.70106392,-69.50591000
3.70362392,-69.50591000
3.70618392,-69.50591000
3.70874392,-69.50591000
3.71130392,-69.50591000
3.71386392,-69.50591000
3.71642392,-69.50591000
3.71898392,-69.50591000
3.72154392,-69.50591000
3.72410392,-69.50591000
3.72666392,-69.50591000
3.72922392,-69.50591000
3.73178392,-69.50591000
3.73434392,-69.50591000
3.73690392,-69.50591000
3.73946392,-69.50591000
3.74202392,-69.50591000
3.74458392,-69.50591000
3.74714392,-69.50591000
3.74970392,-69.50591000
3.75226392,-69.50591000
3.75482392,-69.50591000
3.75738392,-69.50591000
3.75994392,-69.50591000
3.76250392,-69.50591000
3.76506392,-73.99212000
3.76762392,-69.50591000
3.77018392,-69.50591000
3.77274392,-69.50591000
3.77530392,-69.50591000
3.77786392,-69.50591000
3.78042392,-69.50591000
3.78298392,-69.50591000
3.78554392,-69.50591000
3.78810392,-69.50591000
3.79066392,-69.50591000
3.79322392,-69.50591000
3.79578392,-69.50591000
3.79834392,-69.50591000
3.80090392,-69.50591000
3.80346392,-69.50591000
3.80602392,-69.50591000
3.80858392,-69.50591000
3.81114392,-69.50591000
3.81370392,-69.50591000
3.81626392,-69.50591000
3.81882392,-69.50591000
3.82138392,-69.50591000
3.82394392,-69.50591000
3.82650392,-73.99212000
3.82906392,-69.50591000
3.83162392,-69.50591000
3.83418392,-69.50591000
3.83674392,-69.50591000
3.83930392,-69.50591000
3.84186392,-69.50591000
3.84442392,-69.50591000
3.84698392,-69.50591000
3.84954392,-69.50591000
3.85210392,-69.50591000
3.85466392,-69.50591000
3.85722392,-69.50591000
3.85978392,-69.50591000
3.86234392,-69.50591000
3.86490392,-69.50591000
3.86746392,-69.50591000
3.87002392,-69.50591000
3.87258392,-69.50591000
3.87514392,-69.50591000
3.87770392,-69.50591000
3.88026392,-69.50591000
3.88282392,-69.50591000
3.88538392,-69.50591000
3.88794392,-69.50591000
3.89050392,-69.50591000
3.89306392,-69.50591000
3.89562392,-69.50591000
3.89818392,-69.50591000
3.90074392,-69.50591000
3.90330392,-69.50591000
3.90586392,-69.50591000
3.90842392,-69.50591000
3.91098392,-69.50591000
3.91354392,-69.50591000
3.91610392,-69.50591000
3.91866392,-69.50591000
3.92122392,-69.50591000
3.92378392,-69.50591000
3.92634392,-69.50591000
3.92890392,-69.50591000
3.93146392,-69.50591000
3.93402392,-69.50591000
3.93658392,-69.50591000
3.93914392,-69.50591000
3.94170392,-69.50591000
3.94426392,-69.50591000
3.94682392,-69.50591000
3.94938392,-69.50591000
3.95194392,-69.50591000
3.95450392,-69.50591000
3.95706392,-69.50591000
3.95962392,-69.50591000
3.96218392,-69.50591000
3.96474392,-69.50591000
3.96730392,-65.03493000
3.96986392,-69.50591000
3.97242392,-69.50591000
3.97498392,-69.50591000
3.97754392,-69.50591000
3.98010392,-69.50591000
3.98266392,-69.50591000
3.98522392,-69.50591000
3.98778392,-69.50591000
3.99034392,-69.50591000
3.99290392,-69.50591000
3.99546392,-69.50591000
3.99802392,-69.50591000
4.00058392,-69.50591000
4.00314392,-69.50591000
4.00570392,-69.50591000
4.00826392,-69.50591000
4.01082392,-69.50591000
4.01338392,-65.03493000
4.01594392,-65.03493000
4.01850392,-69.50591000
4.02106392,-69.50591000
4.02362392,-69.50591000
4.02618392,-69.50591000
4.02874392,-65.03493000
4.03130392,-69.50591000
4.03386392,-69.50591000
4.03642392,-69.50591000
4.03898392,-69.50591000
4.04154392,-69.50591000
4.04410392,-69.50591000
4.04666392,-69.50591000
4.04922392,-65.03493000
4.05178392,-65.03493000
4.05434392,-65.03493000
4.05690392,-69.50591000
4.05946392,-65.03493000
4.06202392,-69.50591000
4.06458392,-65.03493000
4.06714392,-65.03493000
4.06970392,-65.03493000
4.07226392,-69.50591000
4.07482392,-69.50591000
4.07738392,-65.03493000
4.07994392,-65.03493000
4.08250392,-65.03493000
4.08506392,-69.50591000
4.08762392,-65.03493000
4.09018392,-65.03493000
4.09274392,-65.03493000
4.09530392,-65.03493000
4.09786392,-65.03493000
4.10042392,-65.03493000
4.10298392,-65.03493000
4.10554392,-65.03493000
4.10810392,-65.03493000
4.11066392,-65.03493000
4.11322392,-69.50591000
4.11578392,-65.03493000
4.11834392,-65.03493000
4.12090392,-65.03493000
4.12346392,-65.03493000
4.12602392,-65.03493000
4.12858392,-65.03493000
4.13114392,-65.03493000
4.13370392,-65.03493000
4.13626392,-65.03493000
4.13882392,-65.03493000
4.14138392,-65.03493000
4.14394392,-65.03493000
4.14650392,-65.03493000
4.14906392,-65.03493000
4.15162392,-65.03493000
4.15418392,-65.03493000
4.15674392,-65.03493000
4.15930392,-65.03493000
4.16186392,-60.56398000
4.16442392,-65.03493000
4.16698392,-60.56398000
4.16954392,-65.03493000
4.17210392,-65.03493000
4.17466392,-65.03493000
4.17722392,-60.56398000
4.17978392,-65.03493000
4.18234392,-65.03493000
4.18490392,-65.03493000
4.18746392,-65.03493000
4.19002392,-65.03493000
4.19258392,-65.03493000
4.19514392,-65.03493000
4.19770392,-65.03493000
4.20026392,-65.03493000
4.20282392,-60.56398000
4.20538392,-60.56398000
4.20794392,-65.03493000
4.21050392,-60.56398000
4.21306392,-65.03493000
4.21562392,-65.03493000
4.21818392,-60.56398000
4.22074392,-65.03493000
4.22330392,-65.03493000
4.22586392,-60.56398000
4.22842392,-65.03493000
4.23098392,-60.56398000
4.23354392,-60.56398000
4.23610392,-60.56398000
4.23866392,-65.03493000
4.24122392,-65.03493000
4.24378392,-60.56398000
4.24634392,-65.03493000
4.24890392,-65.03493000
4.25146392,-65.03493000
4.25402392,-60.56398000
4.25658392,-65.03493000
4.25914392,-60.56398000
4.26170392,-60.56398000
4.26426392,-60.56398000
4.26682392,-60.56398000
4.26938392,-60.56398000
4.27194392,-60.56398000
4.27450392,-60.56398000
4.27706392,-60.56398000
4.27962392,-60.56398000
4.28218392,-65.03493000
4.28474392,-60.56398000
4.28730392,-60.56398000
4.28986392,-60.56398000
4.29242392,-60.56398000
4.29498392,-60.56398000
4.29754392,-60.56398000
4.30010392,-60.56398000
4.30266392,-60.56398000
4.30522392,-60.56398000
4.30778392,-60.56398000
4.31034392,-65.03493000
4.31290392,-60.56398000
4.31546392,-60.56398000
4.31802392,-60.56398000
4.32058392,-65.03493000
4.32314392,-60.56398000
4.32570392,-60.56398000
4.32826392,-65.03493000
4.33082392,-65.03493000
4.33338392,-60.56398000
4.33594392,-65.03493000
4.33850392,-60.56398000
4.34106392,-60.56398000
4.34362392,-60.56398000
4.34618392,-60.56398000
4.34874392,-65.03493000
4.35130392,-65.03493000
4.35386392,-65.03493000
4.35642392,-65.03493000
4.35898392,-60.56398000
4.36154392,-65.03493000
4.36410392,-65.03493000
4.36666392,-65.03493000
4.36922392,-65.03493000
4.37178392,-65.03493000
4.37434392,-65.03493000
4.37690392,-65.03493000
4.37946392,-65.03493000
4.38202392,-65.03493000
4.38458392,-60.56398000
4.38714392,-65.03493000
4.38970392,-65.03493000
4.39226392,-65.03493000
4.39482392,-65.03493000
4.39738392,-65.03493000
4.39994392,-65.03493000
4.40250392,-65.03493000
4.40506392,-65.03493000
4.40762392,-60.56398000
4.41018392,-65.03493000
4.41274392,-65.03493000
4.41530392,-65.03493000
4.41786392,-65.03493000
4.42042392,-65.03493000
4.42298392,-65.03493000
4.42554392,-65.03493000
4.42810392,-65.03493000
4.43066392,-65.03493000
4.43322392,-65.03493000
4.43578392,-65.03493000
4.43834392,-65.03493000
4.44090392,-65.03493000
4.44346392,-65.03493000
4.44602392,-65.03493000
4.44858392,-65.03493000
4.45114392,-69.50591000
4.45370392,-65.03493000
4.45626392,-65.03493000
4.45882392,-65.03493000
4.46138392,-65.03493000
4.46394392,-65.03493000
4.46650392,-65.03493000
4.46906392,-69.50591000
4.47162392,-65.03493000
4.47418392,-69.50591000
4.47674392,-65.03493000
4.47930392,-69.50591000
4.48186392,-65.03493000
4.48442392,-65.03493000
4.48698392,-69.50591000
4.48954392,-69.50591000
4.49210392,-69.50591000
4.49466392,-69.50591000
4.49722392,-65.03493000
4.49978392,-69.50591000
4.50234392,-69.50591000
4.50490392,-65.03493000
4.50746392,-65.03493000
4.51002392,-69.50591000
4.51258392,-65.03493000
4.51514392,-65.03493000
4.51770392,-69.50591000
4.52026392,-65.03493000
4.52282392,-65.03493000
4.52538392,-69.50591000
4.52794392,-65.03493000
4.53050392,-69.50591000
4.53306392,-69.50591000
4.53562392,-65.03493000
4.53818392,-69.50591000
4.54074392,-65.03493000
4.54330392,-65.03493000
4.54586392,-69.50591000
4.54842392,-65.03493000
4.55098392,-65.03493000
4.55354392,-65.03493000
4.55610392,-65.03493000
4.55866392,-65.03493000
4.56122392,-65.03493000
4.56378392,-65.03493000
4.56634392,-69.50591000
4.56890392,-69.50591000
4.57146392,-65.03493000
4.57402392,-69.50591000
4.57658392,-69.50591000
4.57914392,-65.03493000
4.58170392,-65.03493000
4.58426392,-65.03493000
4.58682392,-65.03493000
4.58938392,-65.03493000
4.59194392,-65.03493000
4.59450392,-65.03493000
4.59706392,-65.03493000
4.59962392,-69.50591000
4.60218392,-65.03493000
4.60474392,-65.03493000
4.60730392,-65.03493000
4.60986392,-65.03493000
4.61242392,-65.03493000
4.61498392,-65.03493000
4.61754392,-65.03493000
4.62010392,-65.03493000
4.62266392,-65.03493000
4.62522392,-65.03493000
4.62778392,-65.03493000
4.63034392,-65.03493000
4.63290392,-65.03493000
4.63546392,-65.03493000
4.63802392,-65.03493000
4.64058392,-65.03493000
4.64314392,-65.03493000
4.64570392,-69.50591000
4.64826392,-65.03493000
4.65082392,-65.03493000
4.65338392,-65.03493000
4.65594392,-65.03493000
4.65850392,-65.03493000
4.66106392,-65.03493000
4.66362392,-65.03493000
4.66618392,-65.03493000
4.66874392,-65.03493000
4.67130392,-65.03493000
4.67386392,-65.03493000
4.67642392,-65.03493000
4.67898392,-65.03493000
4.68154392,-69.50591000
4.68410392,-65.03493000
4.68666392,-65.03493000
4.68922392,-65.03493000
4.69178392,-69.50591000
4.69434392,-65.03493000
4.69690392,-69.50591000
4.69946392,-69.50591000
4.70202392,-65.03493000
4.70458392,-65.03493000
4.70714392,-69.50591000
4.70970392,-65.03493000
4.71226392,-65.03493000
4.71482392,-65.03493000
4.71738392,-69.50591000
4.71994392,-65.03493000
4.72250392,-69.50591000
4.72506392,-65.03493000
4.72762392,-65.03493000
4.73018392,-69.50591000
4.73274392,-69.50591000
4.73530392,-69.50591000
4.73786392,-65.03493000
4.74042392,-65.03493000
4.74298392,-69.50591000
4.74554392,-69.50591000
4.74810392,-65.03493000
4.75066392,-69.50591000
4.75322392,-69.50591000
4.75578392,-69.50591000
4.75834392,-69.50591000
4.76090392,-69.50591000
4.76346392,-69.50591000
4.76602392,-65.03493000
4.76858392,-69.50591000
4.77114392,-69.50591000
4.77370392,-69.50591000
4.77626392,-69.50591000
4.77882392,-69.50591000
4.78138392,-69.50591000
4.78394392,-69.50591000
4.78650392,-69.50591000
4.78906392,-69.50591000
4.79162392,-69.50591000
4.79418392,-69.50591000
4.79674392,-69.50591000
4.79930392,-69.50591000
4.80186392,-65.03493000
4.80442392,-69.50591000
4.80698392,-69.50591000
4.80954392,-69.50591000
4.81210392,-69.50591000
4.81466392,-69.50591000
4.81722392,-69.50591000
4.81978392,-65.03493000
4.82234392,-69.50591000
4.82490392,-69.50591000
4.82746392,-69.50591000
4.83002392,-69.50591000
4.83258392,-69.50591000
4.83514392,-69.50591000
4.83770392,-69.50591000
4.84026392,-69.50591000
4.84282392,-69.50591000
4.84538392,-69.50591000
4.84794392,-69.50591000
4.85050392,-69.50591000
4.85306392,-69.50591000
4.85562392,-69.50591000
4.85818392,-69.50591000
4.86074392,-69.50591000
4.86330392,-69.50591000
4.86586392,-69.50591000
4.86842392,-69.50591000
4.87098391,-69.50591000
4.87354391,-69.50591000
4.87610391,-69.50591000
4.87866391,-69.50591000
4.88122391,-69.50591000
4.88378391,-69.50591000
4.88634391,-69.50591000
4.88890391,-69.50591000
4.89146391,-69.50591000
4.89402391,-69.50591000
4.89658391,-69.50591000
4.89914391,-69.50591000
4.90170391,-69.50591000
4.90426391,-69.50591000
4.90682391,-69.50591000
4.90938391,-69.50591000
4.91194391,-69.50591000
4.91450391,-69.50591000
4.91706391,-69.50591000
4.91962391,-69.50591000
4.92218391,-69.50591000
4.92474391,-69.50591000
4.92730391,-69.50591000
4.92986391,-69.50591000
4.93242391,-69.50591000
4.93498391,-69.50591000
4.93754391,-69.50591000
4.94010391,-69.50591000
4.94266391,-69.50591000
4.94522391,-69.50591000
4.94778391,-69.50591000
4.95034391,-69.50591000
4.95290391,-69.50591000
4.95546391,-69.50591000
4.95802391,-69.50591000
4.96058391,-69.50591000
4.96314391,-69.50591000
4.96570391,-69.50591000
4.96826391,-69.50591000
4.97082391,-69.50591000
4.97338391,-69.50591000
4.97594391,-69.50591000
4.97850391,-69.50591000
4.98106391,-69.50591000
4.98362391,-69.50591000
4.98618391,-69.50591000
4.98874391,-69.50591000
4.99130391,-69.50591000
4.99386391,-69.50591000
4.99642391,-69.50591000
4.99898391,-69.50591000
5.00154391,-69.50591000
5.00410391,-69.50591000
5.00666391,-69.50591000
5.00922391,-69.50591000
5.01178391,-69.50591000
5.01434391,-69.50591000
5.01690391,-69.50591000
5.01946391,-69.50591000
5.02202391,-69.50591000
5.02458391,-69.50591000
5.02714391,-69.50591000
5.02970391,-69.50591000
5.03226391,-69.50591000
5.03482391,-69.50591000
5.03738391,-69.50591000
5.03994391,-69.50591000
5.04250391,-69.50591000
5.04506391,-69.50591000
5.04762391,-69.50591000
5.05018391,-69.50591000
5.05274391,-69.50591000
5.05530391,-69.50591000
5.05786391,-69.50591000
5.06042391,-69.50591000
5.06298391,-69.50591000
5.06554391,-69.50591000
5.06810391,-69.50591000
5.07066391,-69.50591000
5.07322391,-69.50591000
5.07578391,-69.50591000
5.07834391,-69.50591000
5.08090391,-69.50591000
5.08346391,-69.50591000
5.08602391,-69.50591000
5.08858391,-69.50591000
5.09114391,-69.50591000
5.09370391,-69.50591000
5.09626391,-69.50591000
5.09882391,-69.50591000
5.10138391,-69.50591000
5.10394391,-69.50591000
5.10650391,-69.50591000
5.10906391,-69.50591000
5.11162391,-69.50591000
5.11418391,-69.50591000
5.11674391,-69.50591000
5.11930391,-69.50591000
5.12186391,-69.50591000
5.12442391,-69.50591000
5.12698391,-69.50591000
5.12954391,-69.50591000
5.13210391,-69.50591000
5.13466391,-69.50591000
5.13722391,-69.50591000
5.13978391,-69.50591000
5.14234391,-69.50591000
5.14490391,-69.50591000
5.14746391,-69.50591000
5.15002391,-69.50591000
5.15258391,-69.50591000
5.15514391,-69.50591000
5.15770391,-69.50591000
5.16026391,-69.50591000
5.16282391,-69.50591000
5.16538391,-69.50591000
5.16794391,-69.50591000
5.17050391,-69.50591000
5.17306391,-69.50591000
5.17562391,-69.50591000
5.17818391,-69.50591000
5.18074391,-69.50591000
5.18330391,-69.50591000
5.18586391,-69.50591000
5.18842391,-69.50591000
5.19098391,-69.50591000
5.19354391,-69.50591000
5.19610391,-69.50591000
5.19866391,-69.50591000
5.20122391,-69.50591000
5.20378391,-69.50591000
5.20634391,-69.50591000
5.20890391,-69.50591000
5.21146391,-69.50591000
5.21402391,-69.50591000
5.21658391,-69.50591000
5.21914391,-69.50591000
5.22170391,-69.50591000
5.22426391,-69.50591000
5.22682391,-69.50591000
5.22938391,-69.50591000
5.23194391,-69.50591000
5.23450391,-69.50591000
5.23706391,-69.50591000
5.23962391,-69.50591000
5.24218391,-69.50591000
5.24474391,-69.50591000
5.24730391,-69.50591000
5.24986391,-69.50591000
5.25242391,-69.50591000
5.25498391,-69.50591000
5.25754391,-69.50591000
5.26010391,-69.50591000
5.26266391,-69.50591000
5.26522391,-69.50591000
5.26778391,-69.50591000
5.27034391,-69.50591000
5.27290391,-69.50591000
5.27546391,-69.50591000
5.27802391,-69.50591000
5.28058391,-69.50591000
5.28314391,-69.50591000
5.28570391,-69.50591000
5.28826391,-69.50591000
5.29082391,-69.50591000
5.29338391,-69.50591000
5.29594391,-69.50591000
5.29850391,-69.50591000
5.30106391,-69.50591000
5.30362391,-69.50591000
5.30618391,-69.50591000
5.30874391,-69.50591000
5.31130391,-69.50591000
5.31386391,-69.50591000
5.31642391,-69.50591000
5.31898391,-69.50591000
5.32154391,-69.50591000
5.32410391,-69.50591000
5.32666391,-69.50591000
5.32922391,-69.50591000
5.33178391,-69.50591000
5.33434391,-69.50591000
5.33690391,-69.50591000
5.33946391,-69.50591000
5.34202391,-69.50591000
5.34458391,-69.50591000
5.34714391,-69.50591000
5.34970391,-69.50591000
5.35226391,-69.50591000
5.35482391,-69.50591000
5.35738391,-69.50591000
5.35994391,-69.50591000
5.36250391,-69.50591000
5.36506391,-69.50591000
5.36762391,-69.50591000
5.37018391,-69.50591000
5.37274391,-69.50591000
5.37530391,-69.50591000
5.37786391,-69.50591000
5.38042391,-69.50591000
5.38298391,-69.50591000
5.38554391,-69.50591000
5.38810391,-69.50591000
5.39066391,-69.50591000
5.39322391,-69.50591000
5.39578391,-69.50591000
5.39834391,-69.50591000
5.40090391,-69.50591000
5.40346391,-69.50591000
5.40602391,-69.50591000
5.40858391,-69.50591000
5.41114391,-69.50591000
5.41370391,-69.50591000
5.41626391,-69.50591000
5.41882391,-69.50591000
5.42138391,-69.50591000
5.42394391,-69.50591000
5.42650391,-69.50591000
5.42906391,-69.50591000
5.43162391,-69.50591000
5.43418391,-69.50591000
5.43674391,-69.50591000
5.43930391,-69.50591000
5.44186391,-69.50591000
5.44442391,-69.50591000
5.44698391,-69.50591000
5.44954391,-69.50591000
5.45210391,-69.50591000
5.45466391,-69.50591000
5.45722391,-69.50591000
5.45978391,-69.50591000
5.46234391,-69.50591000
5.46490391,-69.50591000
5.46746391,-69.50591000
5.47002391,-69.50591000
5.47258391,-69.50591000
5.47514391,-69.50591000
5.47770391,-69.50591000
5.48026391,-69.50591000
5.48282391,-69.50591000
5.48538391,-69.50591000
5.48794391,-69.50591000
5.49050391,-69.50591000
5.49306391,-69.50591000
5.49562391,-69.50591000
5.49818391,-69.50591000
5.50074391,-69.50591000
5.50330391,-69.50591000
5.50586391,-69.50591000
5.50842391,-69.50591000
5.51098391,-69.50591000
5.51354391,-69.50591000
5.51610391,-69.50591000
5.51866391,-69.50591000
5.52122391,-69.50591000
5.52378391,-69.50591000
5.52634391,-69.50591000
5.52890391,-69.50591000
5.53146391,-69.50591000
5.53402391,-69.50591000
5.53658391,-69.50591000
5.53914391,-69.50591000
5.54170391,-69.50591000
5.54426391,-69.50591000
5.54682391,-69.50591000
5.54938391,-69.50591000
5.55194391,-69.50591000
5.55450391,-69.50591000
5.55706391,-69.50591000
5.55962391,-69.50591000
5.56218391,-69.50591000
5.56474391,-69.50591000
5.56730391,-69.50591000
5.56986391,-69.50591000
5.57242391,-69.50591000
5.57498391,-69.50591000
5.57754391,-69.50591000
5.58010391,-69.50591000
5.58266391,-69.50591000
5.58522391,-69.50591000
5.58778391,-69.50591000
5.59034391,-69.50591000
5.59290391,-69.50591000
5.59546391,-69.50591000
5.59802391,-69.50591000
5.60058391,-69.50591000
5.60314391,-69.50591000
5.60570391,-69.50591000
5.60826391,-69.50591000
5.61082391,-69.50591000
5.61338391,-69.50591000
5.61594391,-69.50591000
5.61850391,-69.50591000
5.62106391,-69.50591000
5.62362391,-69.50591000
5.62618391,-69.50591000
5.62874391,-69.50591000
5.63130391,-69.50591000
5.63386391,-69.50591000
5.63642391,-69.50591000
5.63898391,-69.50591000
5.64154391,-69.50591000
5.64410391,-69.50591000
5.64666391,-69.50591000
5.64922391,-69.50591000
5.65178391,-69.50591000
5.65434391,-69.50591000
5.65690391,-69.50591000
5.65946391,-69.50591000
5.66202391,-69.50591000
5.66458391,-69.50591000
5.66714391,-69.50591000
5.66970391,-69.50591000
5.67226391,-69.50591000
5.67482391,-69.50591000
5.67738391,-69.50591000
5.67994391,-69.50591000
5.68250391,-69.50591000
5.68506391,-69.50591000
5.68762391,-69.50591000
5.69018391,-69.50591000
5.69274391,-69.50591000
5.69530391,-69.50591000
5.69786391,-69.50591000
5.70042391,-69.50591000
5.70298391,-69.50591000
5.70554391,-69.50591000
5.70810391,-69.50591000
5.71066391,-69.50591000
5.71322391,-69.50591000
5.71578391,-69.50591000
5.71834391,-69.50591000
5.72090391,-69.50591000
5.72346391,-69.50591000
5.72602391,-69.50591000
5.72858391,-69.50591000
5.73114391,-69.50591000
5.73370391,-69.50591000
5.73626391,-69.50591000
5.73882391,-69.50591000
5.74138391,-69.50591000
5.74394391,-69.50591000
5.74650391,-69.50591000
5.74906391,-69.50591000
5.75162391,-69.50591000
5.75418391,-69.50591000
5.75674391,-69.50591000
5.75930391,-69.50591000
5.76186391,-69.50591000
5.76442391,-69.50591000
5.76698391,-69.50591000
5.76954391,-69.50591000
5.77210391,-69.50591000
5.77466391,-69.50591000
5.77722391,-69.50591000
5.77978391,-69.50591000
5.78234391,-69.50591000
5.78490391,-69.50591000
5.78746391,-69.50591000
5.79002391,-69.50591000
5.79258391,-69.50591000
5.79514391,-69.50591000
5.79770391,-69.50591000
5.80026391,-69.50591000
5.80282391,-69.50591000
5.80538391,-69.50591000
5.80794391,-69.50591000
5.81050391,-69.50591000
5.81306391,-69.50591000
5.81562391,-69.50591000
5.81818391,-69.50591000
5.82074391,-69.50591000
5.82330391,-69.50591000
5.82586391,-69.50591000
5.82842391,-69.50591000
5.83098391,-69.50591000
5.83354391,-69.50591000
5.83610391,-69.50591000
5.83866391,-69.50591000
5.84122391,-69.50591000
5.84378391,-69.50591000
5.84634391,-69.50591000
5.84890391,-69.50591000
5.85146391,-69.50591000
5.85402391,-69.50591000
5.85658391,-69.50591000
5.85914391,-69.50591000
5.86170391,-69.50591000
5.86426391,-69.50591000
5.86682391,-69.50591000
5.86938391,-69.50591000
5.87194391,-69.50591000
5.87450391,-69.50591000
5.87706391,-69.50591000
5.87962391,-69.50591000
5.88218391,-69.50591000
5.88474391,-69.50591000
5.88730391,-69.50591000
5.88986391,-69.50591000
5.89242391,-69.50591000
5.89498391,-69.50591000
5.89754391,-69.50591000
5.90010391,-69.50591000
5.90266391,-69.50591000
5.90522391,-69.50591000
5.90778391,-69.50591000
5.91034391,-69.50591000
5.91290391,-69.50591000
5.91546391,-69.50591000
5.91802391,-69.50591000
5.92058391,-69.50591000
5.92314391,-69.50591000
5.92570391,-69.50591000
5.92826391,-69.50591000
5.93082391,-69.50591000
5.93338391,-69.50591000
5.93594391,-69.50591000
5.93850391,-69.50591000
5.94106391,-69.50591000
5.94362391,-69.50591000
5.94618391,-69.50591000
5.94874391,-69.50591000
5.95130391,-69.50591000
5.95386391,-69.50591000
5.95642391,-69.50591000
5.95898391,-69.50591000
5.96154391,-69.50591000
5.96410391,-69.50591000
5.96666391,-69.50591000
5.96922391,-69.50591000
5.97178391,-69.50591000
5.97434391,-69.50591000
5.97690391,-69.50591000
5.97946391,-69.50591000
5.98202391,-69.50591000
5.98458391,-69.50591000
5.98714391,-69.50591000
5.98970391,-69.50591000
5.99226391,-69.50591000
5.99482391,-69.50591000
5.99738391,-69.50591000
5.99994391,-69.50591000
6.00250391,-69.50591000
6.00506391,-69.50591000
6.00762391,-69.50591000
6.01018391,-69.50591000
6.01274391,-69.50591000
6.01530391,-69.50591000
6.01786391,-69.50591000
6.02042391,-69.50591000
6.02298391,-69.50591000
6.02554391,-69.50591000
6.02810391,-69.50591000
6.03066391,-69.50591000
6.03322391,-69.50591000
6.03578391,-69.50591000
6.03834391,-69.50591000
6.04090391,-69.50591000
6.04346391,-69.50591000
6.04602391,-69.50591000
6.04858391,-69.50591000
6.05114391,-69.50591000
6.05370391,-69.50591000
6.05626391,-69.50591000
6.05882391,-69.50591000
6.06138391,-69.50591000
6.06394391,-69.50591000
6.06650391,-69.50591000
6.06906391,-69.50591000
6.07162391,-69.50591000
6.07418391,-69.50591000
6.07674391,-69.50591000
6.07930391,-69.50591000
6.08186391,-69.50591000
6.08442391,-69.50591000
6.08698391,-69.50591000
6.08954391,-69.50591000
6.09210391,-69.50591000
6.09466391,-69.50591000
6.09722391,-73.99212000
6.09978391,-73.99212000
6.10234391,-69.50591000
6.10490391,-69.50591000
6.10746391,-69.50591000
6.11002391,-69.50591000
6.11258391,-69.50591000
6.11514391,-69.50591000
6.11770391,-69.50591000
6.12026391,-69.50591000
6.12282391,-69.50591000
6.12538391,-69.50591000
6.12794391,-69.50591000
6.13050391,-69.50591000
6.13306391,-69.50591000
6.13562391,-73.99212000
6.13818391,-73.99212000
6.14074391,-69.50591000
6.14330391,-73.99212000
6.14586391,-69.50591000
6.14842391,-69.50591000
6.15098391,-73.99212000
6.15354391,-69.50591000
6.15610391,-69.50591000
6.15866391,-73.99212000
6.16122391,-73.99212000
6.16378391,-73.99212000
6.16634391,-69.50591000
6.16890391,-73.99212000
6.17146391,-69.50591000
6.17402391,-69.50591000
6.17658391,-69.50591000
6.17914391,-69.50591000
6.18170391,-69.50591000
6.18426391,-73.99212000
6.18682391,-69.50591000
6.18938391,-69.50591000
6.19194391,-69.50591000
6.19450391,-69.50591000
6.19706391,-69.50591000
6.19962391,-73.99212000
6.20218391,-73.99212000
6.20474391,-69.50591000
6.20730391,-69.50591000
6.20986391,-73.99212000
6.21242391,-69.50591000
6.21498391,-69.50591000
6.21754391,-69.50591000
6.22010391,-69.50591000
6.22266391,-73.99212000
6.22522391,-69.50591000
6.22778391,-69.50591000
6.23034391,-69.50591000
6.23290391,-69.50591000
6.23546391,-69.50591000
6.23802391,-69.50591000
6.24058391,-69.50591000
6.24314391,-69.50591000
6.24570391,-73.99212000
6.24826391,-69.50591000
6.25082391,-69.50591000
6.25338391,-69.50591000
6.25594391,-69.50591000
6.25850391,-69.50591000
6.26106391,-73.99212000
6.26362391,-69.50591000
6.26618391,-69.50591000
6.26874391,-69.50591000
6.27130391,-69.50591000
6.27386391,-69.50591000
6.27642391,-73.99212000
6.27898391,-73.99212000
6.28154391,-69.50591000
6.28410391,-73.99212000
6.28666391,-69.50591000
6.28922391,-69.50591000
6.29178391,-69.50591000
6.29434391,-73.99212000
6.29690391,-73.99212000
6.29946391,-69.50591000
6.30202391,-69.50591000
6.30458391,-69.50591000
6.30714391,-69.50591000
6.30970391,-73.99212000
6.31226391,-69.50591000
6.31482391,-73.99212000
6.31738391,-69.50591000
6.31994391,-69.50591000
6.32250391,-69.50591000
6.32506391,-69.50591000
6.32762391,-69.50591000
6.33018391,-73.99212000
6.33274391,-73.99212000
6.33530391,-69.50591000
6.33786391,-73.99212000
6.34042391,-69.50591000
6.34298391,-73.99212000
6.34554391,-69.50591000
6.34810391,-69.50591000
6.35066391,-69.50591000
6.35322391,-69.50591000
6.35578391,-69.50591000
6.35834391,-69.50591000
6.36090391,-69.50591000
6.36346391,-73.99212000
6.36602391,-69.50591000
6.36858391,-69.50591000
6.37114391,-69.50591000
6.37370391,-69.50591000
6.37626391,-69.50591000
6.37882391,-69.50591000
6.38138391,-73.99212000
6.38394391,-73.99212000
6.38650391,-69.50591000
6.38906391,-69.50591000
6.39162391,-69.50591000
6.39418391,-69.50591000
6.39674391,-69.50591000
6.39930391,-69.50591000
6.40186391,-69.50591000
6.40442391,-69.50591000
6.40698391,-69.50591000
6.40954391,-69.50591000
6.41210391,-69.50591000
6.41466391,-69.50591000
6.41722391,-69.50591000
6.41978391,-73.99212000
6.42234391,-69.50591000
6.42490391,-69.50591000
6.42746391,-69.50591000
6.43002391,-69.50591000
6.43258391,-69.50591000
6.43514391,-69.50591000
6.43770391,-69.50591000
6.44026391,-69.50591000
6.44282391,-69.50591000
6.44538391,-69.50591000
6.44794391,-69.50591000
6.45050391,-69.50591000
6.45306391,-69.50591000
6.45562391,-69.50591000
6.45818391,-69.50591000
6.46074391,-69.50591000
6.46330391,-69.50591000
6.46586391,-69.50591000
6.46842391,-69.50591000
6.47098391,-69.50591000
6.47354391,-69.50591000
6.47610391,-69.50591000
6.47866391,-69.50591000
6.48122391,-69.50591000
6.48378391,-69.50591000
6.48634391,-69.50591000
6.48890391,-69.50591000
6.49146391,-69.50591000
6.49402391,-69.50591000
6.49658391,-69.50591000
6.49914391,-69.50591000
6.50170391,-69.50591000
6.50426391,-69.50591000
6.50682391,-69.50591000
6.50938391,-69.50591000
6.51194391,-69.50591000
6.51450391,-69.50591000
6.51706390,-69.50591000
6.51962390,-69.50591000
6.52218390,-69.50591000
6.52474390,-69.50591000
6.52730390,-69.50591000
6.52986390,-69.50591000
6.53242390,-69.50591000
6.53498390,-69.50591000
6.53754390,-69.50591000
6.54010390,-69.50591000
6.54266390,-69.50591000
6.54522390,-69.50591000
6.54778390,-69.50591000
6.55034390,-69.50591000
6.55290390,-69.50591000
6.55546390,-69.50591000
6.55802390,-69.50591000
6.56058390,-69.50591000
6.56314390,-69.50591000
6.56570390,-69.50591000
6.56826390,-69.50591000
6.57082390,-69.50591000
6.57338390,-69.50591000
6.57594390,-69.50591000
6.57850390,-69.50591000
6.58106390,-69.50591000
6.58362390,-69.50591000
6.58618390,-69.50591000
6.58874390,-69.50591000
6.59130390,-69.50591000
6.59386390,-69.50591000
6.59642390,-69.50591000
6.59898390,-69.50591000
6.60154390,-69.50591000
6.60410390,-69.50591000
6.60666390,-69.50591000
6.60922390,-69.50591000
6.61178390,-69.50591000
6.61434390,-69.50591000
6.61690390,-69.50591000
6.61946390,-69.50591000
6.62202390,-73.99212000
6.62458390,-69.50591000
6.62714390,-69.50591000
6.62970390,-69.50591000
6.63226390,-73.99212000
6.63482390,-69.50591000
6.63738390,-69.50591000
6.63994390,-69.50591000
6.64250390,-69.50591000
6.64506390,-69.50591000
6.64762390,-69.50591000
6.65018390,-69.50591000
6.65274390,-69.50591000
6.65530390,-69.50591000
6.65786390,-69.50591000
6.66042390,-69.50591000
6.66298390,-69.50591000
6.66554390,-73.99212000
6.66810390,-69.50591000
6.67066390,-69.50591000
6.67322390,-69.50591000
6.67578390,-69.50591000
6.67834390,-69.50591000
6.68090390,-69.50591000
6.68346390,-69.50591000
6.68602390,-69.50591000
6.68858390,-69.50591000
6.69114390,-69.50591000
6.69370390,-69.50591000
6.69626390,-69.50591000
6.69882390,-69.50591000
6.70138390,-69.50591000
6.70394390,-69.50591000
6.70650390,-73.99212000
6.70906390,-69.50591000
6.71162390,-69.50591000
6.71418390,-73.99212000
6.71674390,-69.50591000
6.71930390,-73.99212000
6.72186390,-69.50591000
6.72442390,-73.99212000
6.72698390,-73.99212000
6.72954390,-73.99212000
6.73210390,-69.50591000
6.73466390,-73.99212000
6.73722390,-73.99212000
6.73978390,-73.99212000
6.74234390,-73.99212000
6.74490390,-73.99212000
6.74746390,-73.99212000
6.75002390,-73.99212000
6.75258390,-69.50591000
6.75514390,-73.99212000
6.75770390,-73.99212000
6.76026390,-73.99212000
6.76282390,-73.99212000
6.76538390,-78.46308000
6.76794390,-73.99212000
6.77050390,-78.46308000
6.77306390,-78.46308000
6.77562390,-73.99212000
6.77818390,-78.46308000
6.78074390,-78.46308000
6.78330390,-78.46308000
6.78586390,-78.46308000
6.78842390,-78.46308000
6.79098390,-78.46308000
6.79354390,-78.46308000
6.79610390,-78.46308000
6.79866390,-78.46308000
6.80122390,-78.46308000
6.80378390,-78.46308000
6.80634390,-78.46308000
6.80890390,-78.46308000
6.81146390,-78.46308000
6.81402390,-78.46308000
6.81658390,-78.46308000
6.81914390,-78.46308000
6.82170390,-78.46308000
6.82426390,-78.46308000
6.82682390,-78.46308000
6.82938390,-82.93404000
6.83194390,-82.93404000
6.83450390,-82.93404000
6.83706390,-82.93404000
6.83962390,-82.93404000
6.84218390,-82.93404000
6.84474390,-82.93404000
6.84730390,-82.93404000
6.84986390,-82.93404000
6.85242390,-82.93404000
6.85498390,-82.93404000
6.85754390,-87.40501000
6.86010390,-82.93404000
6.86266390,-87.40501000
6.86522390,-87.40501000
6.86778390,-87.40501000
6.87034390,-87.40501000
6.87290390,-87.40501000
6.87546390,-87.40501000
6.87802390,-87.40501000
6.88058390,-87.40501000
6.88314390,-87.40501000
6.88570390,-87.40501000
6.88826390,-87.40501000
6.89082390,-87.40501000
6.89338390,-87.40501000
6.89594390,-87.40501000
6.89850390,-87.40501000
6.90106390,-87.40501000
6.90362390,-87.40501000
6.90618390,-87.40501000
6.90874390,-87.40501000
6.91130390,-91.87596000
6.91386390,-91.87596000
6.91642390,-91.87596000
6.91898390,-91.87596000
6.92154390,-96.34693000
6.92410390,-91.87596000
6.92666390,-91.87596000
6.92922390,-91.87596000
6.93178390,-96.34693000
6.93434390,-96.34693000
6.93690390,-96.34693000
6.93946390,-96.34693000
6.94202390,-96.34693000
6.94458390,-96.34693000
6.94714390,-96.34693000
6.94970390,-96.34693000
6.95226390,-96.34693000
6.95482390,-96.34693000
6.95738390,-96.34693000
6.95994390,-100.81790000
6.96250390,-96.34693000
6.96506390,-96.34693000
6.96762390,-100.81790000
6.97018390,-100.81790000
6.97274390,-96.34693000
6.97530390,-100.81790000
6.97786390,-100.81790000
6.98042390,-100.81790000
6.98298390,-100.81790000
6.98554390,-100.81790000
6.98810390,-105.28880000
6.99066390,-105.28880000
6.99322390,-105.28880000
6.99578390,-105.28880000
6.99834390,-105.28880000
7.00090390,-105.28880000
7.00346390,-105.28880000
7.00602390,-105.28880000
7.00858390,-105.28880000
7.01114390,-105.28880000
7.01370390,-105.28880000
7.01626390,-105.28880000
7.01882390,-105.28880000
7.02138390,-105.28880000
7.02394390,-105.28880000
7.02650390,-105.28880000
7.02906390,-109.75980000
7.03162390,-109.75980000
7.03418390,-109.75980000
7.03674390,-105.28880000
7.03930390,-109.75980000
7.04186390,-109.75980000
7.04442390,-109.75980000
7.04698390,-109.75980000
7.04954390,-109.75980000
7.05210390,-109.75980000
7.05466390,-109.75980000
7.05722390,-109.75980000
7.05978390,-109.75980000
7.06234390,-109.75980000
7.06490390,-114.23080000
7.06746390,-109.75980000
7.07002390,-114.23080000
7.07258390,-114.23080000
7.07514390,-114.23080000
7.07770390,-114.23080000
7.08026390,-114.23080000
7.08282390,-114.23080000
7.08538390,-114.23080000
7.08794390,-114.23080000
7.09050390,-114.23080000
7.09306390,-114.23080000
7.09562390,-114.23080000
7.09818390,-114.23080000
7.10074390,-114.23080000
7.10330390,-114.23080000
7.10586390,-114.23080000
7.10842390,-114.23080000
7.11098390,-118.70170000
7.11354390,-118.70170000
7.11610390,-114.23080000
7.11866390,-114.23080000
7.12122390,-118.70170000
7.12378390,-118.70170000
7.12634390,-118.70170000
7.12890390,-114.23080000
7.13146390,-118.70170000
7.13402390,-118.70170000
7.13658390,-118.70170000
7.13914390,-118.70170000
7.14170390,-118.70170000
7.14426390,-118.70170000
7.14682390,-118.70170000
7.14938390,-118.70170000
7.15194390,-118.70170000
7.15450390,-118.70170000
7.15706390,-118.70170000
7.15962390,-118.70170000
7.16218390,-118.70170000
7.16474390,-118.70170000
7.16730390,-118.70170000
7.16986390,-118.70170000
7.17242390,-118.70170000
7.17498390,-118.70170000
7.17754390,-118.70170000
7.18010390,-118.70170000
7.18266390,-118.70170000
7.18522390,-118.70170000
7.18778390,-118.70170000
7.19034390,-118.70170000
7.19290390,-118.70170000
7.19546390,-118.70170000
7.19802390,-118.70170000
7.20058390,-118.70170000
7.20314390,-118.70170000
7.20570390,-118.70170000
7.20826390,-118.70170000
7.21082390,-118.70170000
7.21338390,-118.70170000
7.21594390,-118.70170000
7.21850390,-118.70170000
7.22106390,-118.70170000
7.22362390,-118.70170000
7.22618390,-118.70170000
7.22874390,-118.70170000
7.23130390,-114.23080000
7.23386390,-118.70170000
7.23642390,-118.70170000
7.23898390,-118.70170000
7.24154390,-114.23080000
7.24410390,-118.70170000
7.24666390,-118.70170000
7.24922390,-118.70170000
7.25178390,-114.23080000
7.25434390,-118.70170000
7.25690390,-118.70170000
7.25946390,-114.23080000
7.26202390,-114.23080000
7.26458390,-114.23080000
7.26714390,-118.70170000
7.26970390,-114.23080000
7.27226390,-114.23080000
7.27482390,-114.23080000
7.27738390,-114.23080000
7.27994390,-114.23080000
7.28250390,-114.23080000
7.28506390,-114.23080000
7.28762390,-114.23080000
7.29018390,-114.23080000
7.29274390,-114.23080000
7.29530390,-114.23080000
7.29786390,-114.23080000
7.30042390,-109.75980000
7.30298390,-109.75980000
7.30554390,-109.75980000
7.30810390,-109.75980000
7.31066390,-109.75980000
7.31322390,-105.28880000
7.31578390,-109.75980000
7.31834390,-105.28880000
7.32090390,-105.28880000
7.32346390,-109.75980000
7.32602390,-105.28880000
7.32858390,-105.28880000
7.33114390,-105.28880000
7.33370390,-105.28880000
7.33626390,-105.28880000
7.33882390,-105.28880000
7.34138390,-105.28880000
7.34394390,-105.28880000
7.34650390,-105.28880000
7.34906390,-105.28880000
7.35162390,-105.28880000
7.35418390,-105.28880000
7.35674390,-105.28880000
7.35930390,-105.28880000
7.36186390,-105.28880000
7.36442390,-105.28880000
7.36698390,-100.81790000
7.36954390,-100.81790000
7.37210390,-100.81790000
7.37466390,-100.81790000
7.37722390,-100.81790000
7.37978390,-100.81790000
7.38234390,-100.81790000
7.38490390,-96.34693000
7.38746390,-96.34693000
7.39002390,-96.34693000
7.39258390,-96.34693000
7.39514390,-96.34693000
7.39770390,-96.34693000
7.40026390,-96.34693000
7.40282390,-96.34693000
7.40538390,-96.34693000
7.40794390,-96.34693000
7.41050390,-96.34693000
7.41306390,-96.34693000
7.41562390,-96.34693000
7.41818390,-96.34693000
7.42074390,-96.34693000
7.42330390,-96.34693000
7.42586390,-91.87596000
7.42842390,-91.87596000
7.43098390,-91.87596000
7.43354390,-91.87596000
7.43610390,-91.87596000
7.43866390,-91.87596000
7.44122390,-91.87596000
7.44378390,-91.87596000
7.44634390,-87.40501000
7.44890390,-87.40501000
7.45146390,-87.40501000
7.45402390,-87.40501000
7.45658390,-87.40501000
7.45914390,-87.40501000
7.46170390,-87.40501000
7.46426390,-87.40501000
7.46682390,-87.40501000
7.46938390,-87.40501000
7.47194390,-87.40501000
7.47450390,-87.40501000
7.47706390,-87.40501000
7.47962390,-87.40501000
7.48218390,-87.40501000
7.48474390,-87.40501000
7.48730390,-87.40501000
7.48986390,-87.40501000
7.49242390,-87.40501000
7.49498390,-87.40501000
7.49754390,-87.40501000
7.50010390,-87.40501000
7.50266390,-82.93404000
7.50522390,-87.40501000
7.50778390,-87.40501000
7.51034390,-87.40501000
7.51290390,-82.93404000
7.51546390,-82.93404000
7.51802390,-82.93404000
7.52058390,-82.93404000
7.52314390,-82.93404000
7.52570390,-82.93404000
7.52826390,-82.93404000
7.53082390,-82.93404000
7.53338390,-82.93404000
7.53594390,-82.93404000
7.53850390,-82.93404000
7.54106390,-82.93404000
7.54362390,-82.93404000
7.54618390,-82.93404000
7.54874390,-82.93404000
7.55130390,-78.46308000
7.55386390,-82.93404000
7.55642390,-78.46308000
7.55898390,-78.46308000
7.56154390,-78.46308000
7.56410390,-78.46308000
7.56666390,-78.46308000
7.56922390,-82.93404000
7.57178390,-78.46308000
7.57434390,-78.46308000
7.57690390,-78.46308000
7.57946390,-78.46308000
7.58202390,-78.46308000
7.58458390,-78.46308000
7.58714390,-78.46308000
7.58970390,-78.46308000
7.59226390,-78.46308000
7.59482390,-78.46308000
7.59738390,-78.46308000
7.59994390,-78.46308000
7.60250390,-78.46308000
7.60506390,-73.99212000
7.60762390,-73.99212000
7.61018390,-78.46308000
7.61274390,-73.99212000
7.61530390,-73.99212000
7.61786390,-73.99212000
7.62042390,-78.46308000
7.62298390,-73.99212000
7.62554390,-78.46308000
7.62810390,-73.99212000
7.63066390,-73.99212000
7.63322390,-73.99212000
7.63578390,-69.50591000
7.63834390,-73.99212000
7.64090390,-73.99212000
7.64346390,-73.99212000
7.64602390,-69.50591000
7.64858390,-69.50591000
7.65114390,-73.99212000
7.65370390,-69.50591000
7.65626390,-73.99212000
7.65882390,-69.50591000
7.66138390,-69.50591000
7.66394390,-69.50591000
7.66650390,-69.50591000
7.66906390,-69.50591000
7.67162390,-69.50591000
7.67418390,-73.99212000
7.67674390,-73.99212000
7.67930390,-69.50591000
7.68186390,-69.50591000
7.68442390,-69.50591000
7.68698390,-69.50591000
7.68954390,-69.50591000
7.69210390,-69.50591000
7.69466390,-69.50591000
7.69722390,-69.50591000
7.69978390,-69.50591000
7.70234390,-69.50591000
7.70490390,-69.50591000
7.70746390,-69.50591000
7.71002390,-69.50591000
7.71258390,-69.50591000
7.71514390,-69.50591000
7.71770390,-69.50591000
7.72026390,-69.50591000
7.72282390,-69.50591000
7.72538390,-69.50591000
7.72794390,-69.50591000
7.73050390,-69.50591000
7.73306390,-69.50591000
7.73562390,-69.50591000
7.73818390,-69.50591000
7.74074390,-69.50591000
7.74330390,-69.50591000
7.74586390,-69.50591000
7.74842390,-69.50591000
7.75098390,-69.50591000
7.75354390,-69.50591000
7.75610390,-69.50591000
7.75866390,-69.50591000
7.76122390,-69.50591000
7.76378390,-69.50591000
7.76634390,-69.50591000
7.76890390,-69.50591000
7.77146390,-69.50591000
7.77402390,-69.50591000
7.77658390,-69.50591000
7.77914390,-69.50591000
7.78170390,-69.50591000
7.78426390,-69.50591000
7.78682390,-65.03493000
7.78938390,-69.50591000
7.79194390,-69.50591000
7.79450390,-69.50591000
7.79706390,-69.50591000
7.79962390,-65.03493000
7.80218390,-65.03493000
7.80474390,-69.50591000
7.80730390,-65.03493000
7.80986390,-65.03493000
7.81242390,-65.03493000
7.81498390,-65.03493000
7.81754390,-65.03493000
7.82010390,-65.03493000
7.82266390,-65.03493000
7.82522390,-65.03493000
7.82778390,-65.03493000
7.83034390,-65.03493000
7.83290390,-65.03493000
7.83546390,-65.03493000
7.83802390,-60.56398000
7.84058390,-60.56398000
7.84314390,-60.56398000
7.84570390,-65.03493000
7.84826390,-65.03493000
7.85082390,-60.56398000
7.85338390,-60.56398000
7.85594390,-60.56398000
7.85850390,-60.56398000
7.86106390,-60.56398000
7.86362390,-60.56398000
7.86618390,-60.56398000
7.86874390,-60.56398000
7.87130390,-60.56398000
7.87386390,-60.56398000
7.87642390,-60.56398000
7.87898390,-60.56398000
7.88154390,-60.56398000
7.88410390,-60.56398000
7.88666390,-56.09302000
7.88922390,-60.56398000
7.89178390,-60.56398000
7.89434390,-56.09302000
7.89690390,-56.09302000
7.89946390,-51.62206000
7.90202390,-51.62206000
7.90458390,-56.09302000
7.90714390,-51.62206000
7.90970390,-51.62206000
7.91226390,-51.62206000
7.91482390,-51.62206000
7.91738390,-51.62206000
7.91994390,-51.62206000
7.92250390,-51.62206000
7.92506390,-51.62206000
7.92762390,-51.62206000
7.93018390,-51.62206000
7.93274390,-51.62206000
7.93530390,-51.62206000
7.93786390,-51.62206000
7.94042390,-47.15109000
7.94298390,-42.68013000
7.94554390,-47.15109000
7.94810390,-47.15109000
7.95066390,-47.15109000
7.95322390,-42.68013000
7.95578390,-42.68013000
7.95834390,-42.68013000
7.96090390,-42.68013000
7.96346390,-42.68013000
7.96602390,-42.68013000
7.96858390,-42.68013000
7.97114390,-42.68013000
7.97370390,-42.68013000
7.97626390,-42.68013000
7.97882390,-38.20917000
7.98138390,-33.73821000
7.98394390,-33.73821000
7.98650390,-33.73821000
7.98906390,-33.73821000
7.99162390,-33.73821000
7.99418390,-33.73821000
7.99674390,-33.73821000
7.99930390,-33.73821000
8.00186390,-33.73821000
8.00442390,-33.73821000
8.00698390,-33.73821000
8.00954390,-33.73821000
8.01210390,-29.26725000
8.01466390,-29.26725000
8.01722390,-33.73821000
8.01978390,-29.26725000
8.02234390,-29.26725000
8.02490390,-29.26725000
8.02746390,-29.26725000
8.03002390,-24.79629000
8.03258390,-24.79629000
8.03514390,-24.79629000
8.03770390,-24.79629000
8.04026390,-24.79629000
8.04282390,-24.79629000
8.04538390,-24.79629000
8.04794390,-24.79629000
8.05050390,-24.79629000
8.05306390,-24.79629000
8.05562390,-24.79629000
8.05818390,-24.79629000
8.06074390,-24.79629000
8.06330390,-20.32533000
8.06586390,-20.32533000
8.06842390,-20.32533000
8.07098390,-20.32533000
8.07354390,-20.32533000
8.07610390,-20.32533000
8.07866390,-15.85437000
8.08122390,-20.32533000
8.08378390,-15.85437000
8.08634390,-15.85437000
8.08890390,-15.85437000
8.09146390,-15.85437000
8.09402390,-15.85437000
8.09658390,-15.85437000
8.09914390,-15.85437000
8.10170390,-15.85437000
8.10426390,-15.85437000
8.10682390,-15.85437000
8.10938390,-15.85437000
8.11194390,-15.85437000
8.11450390,-15.85437000
8.11706390,-15.85437000
8.11962390,-15.85437000
8.12218390,-15.85437000
8.12474390,-15.85437000
8.12730390,-15.85437000
8.12986390,-11.38340000
8.13242390,-15.85437000
8.13498390,-15.85437000
8.13754390,-15.85437000
8.14010390,-15.85437000
8.14266390,-11.38340000
8.14522390,-11.38340000
8.14778390,-15.85437000
8.15034390,-11.38340000
8.15290390,-11.38340000
8.15546390,-11.38340000
8.15802390,-11.38340000
8.16058390,-11.38340000
8.16314389,-11.38340000
8.16570389,-15.85437000
8.16826389,-11.38340000
8.17082389,-11.38340000
8.17338389,-11.38340000
8.17594389,-11.38340000
8.17850389,-11.38340000
8.18106389,-11.38340000
8.18362389,-6.91244200
8.18618389,-11.38340000
8.18874389,-11.38340000
8.19130389,-11.38340000
8.19386389,-11.38340000
8.19642389,-11.38340000
8.19898389,-11.38340000
8.20154389,-11.38340000
8.20410389,-11.38340000
8.20666389,-11.38340000
8.20922389,-11.38340000
8.21178389,-11.38340000
8.21434389,-11.38340000
8.21690389,-6.91244200
8.21946389,-11.38340000
8.22202389,-11.38340000
8.22458389,-11.38340000
8.22714389,-11.38340000
8.22970389,-11.38340000
8.23226389,-11.38340000
8.23482389,-11.38340000
8.23738389,-11.38340000
8.23994389,-11.38340000
8.24250389,-11.38340000
8.24506389,-11.38340000
8.24762389,-11.38340000
8.25018389,-11.38340000
8.25274389,-11.38340000
8.25530389,-11.38340000
8.25786389,-11.38340000
8.26042389,-11.38340000
8.26298389,-11.38340000
8.26554389,-15.85437000
8.26810389,-11.38340000
8.27066389,-11.38340000
8.27322389,-11.38340000
8.27578389,-15.85437000
8.27834389,-11.38340000
8.28090389,-11.38340000
8.28346389,-11.38340000
8.28602389,-15.85437000
8.28858389,-11.38340000
8.29114389,-15.85437000
8.29370389,-15.85437000
8.29626389,-15.85437000
8.29882389,-11.38340000
8.30138389,-11.38340000
8.30394389,-15.85437000
8.30650389,-11.38340000
8.30906389,-15.85437000
8.31162389,-15.85437000
8.31418389,-15.85437000
8.31674389,-15.85437000
8.31930389,-15.85437000
8.32186389,-15.85437000
8.32442389,-15.85437000
8.32698389,-15.85437000
8.32954389,-15.85437000
8.33210389,-15.85437000
8.33466389,-15.85437000
8.33722389,-15.85437000
8.33978389,-15.85437000
8.34234389,-15.85437000
8.34490389,-15.85437000
8.34746389,-15.85437000
8.35002389,-15.85437000
8.35258389,-15.85437000
8.35514389,-15.85437000
8.35770389,-15.85437000
8.36026389,-15.85437000
8.36282389,-15.85437000
8.36538389,-15.85437000
8.36794389,-15.85437000
8.37050389,-20.32533000
8.37306389,-15.85437000
8.37562389,-20.32533000
8.37818389,-20.32533000
8.38074389,-20.32533000
8.38330389,-15.85437000
8.38586389,-20.32533000
8.38842389,-20.32533000
8.39098389,-20.32533000
8.39354389,-20.32533000
8.39610389,-20.32533000
8.39866389,-24.79629000
8.40122389,-24.79629000
8.40378389,-20.32533000
8.40634389,-24.79629000
8.40890389,-24.79629000
8.41146389,-20.32533000
8.41402389,-24.79629000
8.41658389,-24.79629000
8.41914389,-24.79629000
8.42170389,-24.79629000
8.42426389,-24.79629000
8.42682389,-24.79629000
8.42938389,-24.79629000
8.43194389,-24.79629000
8.43450389,-24.79629000
8.43706389,-24.79629000
8.43962389,-24.79629000
8.44218389,-24.79629000
8.44474389,-24.79629000
8.44730389,-24.79629000
8.44986389,-24.79629000
8.45242389,-29.26725000
8.45498389,-29.26725000
8.45754389,-29.26725000
8.46010389,-29.26725000
8.46266389,-29.26725000
8.46522389,-29.26725000
8.46778389,-29.26725000
8.47034389,-29.26725000
8.47290389,-29.26725000
8.47546389,-29.26725000
8.47802389,-29.26725000
8.48058389,-33.73821000
8.48314389,-33.73821000
8.48570389,-33.73821000
8.48826389,-33.73821000
8.49082389,-33.73821000
8.49338389,-33.73821000
8.49594389,-33.73821000
8.49850389,-33.73821000
8.50106389,-33.73821000
8.50362389,-33.73821000
8.50618389,-33.73821000
8.50874389,-33.73821000
8.51130389,-33.73821000
8.51386389,-33.73821000
8.51642389,-33.73821000
8.51898389,-33.73821000
8.52154389,-33.73821000
8.52410389,-38.20917000
8.52666389,-33.73821000
8.52922389,-38.20917000
8.53178389,-38.20917000
8.53434389,-38.20917000
8.53690389,-38.20917000
8.53946389,-38.20917000
8.54202389,-38.20917000
8.54458389,-42.68013000
8.54714389,-42.68013000
8.54970389,-42.68013000
8.55226389,-42.68013000
8.55482389,-42.68013000
8.55738389,-42.68013000
8.55994389,-42.68013000
8.56250389,-42.68013000
8.56506389,-42.68013000
8.56762389,-42.68013000
8.57018389,-42.68013000
8.57274389,-42.68013000
8.57530389,-42.68013000
8.57786389,-42.68013000
8.58042389,-42.68013000
8.58298389,-47.15109000
8.58554389,-47.15109000
8.58810389,-47.15109000
8.59066389,-47.15109000
8.59322389,-47.15109000
8.59578389,-47.15109000
8.59834389,-47.15109000
8.60090389,-51.62206000
8.60346389,-47.15109000
8.60602389,-47.15109000
8.60858389,-51.62206000
8.61114389,-51.62206000
8.61370389,-51.62206000
8.61626389,-51.62206000
8.61882389,-51.62206000
8.62138389,-51.62206000
8.62394389,-51.62206000
8.62650389,-51.62206000
8.62906389,-51.62206000
8.63162389,-51.62206000
8.63418389,-51.62206000
8.63674389,-51.62206000
8.63930389,-51.62206000
8.64186389,-51.62206000
8.64442389,-56.09302000
8.64698389,-56.09302000
8.64954389,-56.09302000
8.65210389,-56.09302000
8.65466389,-51.62206000
8.65722389,-56.09302000
8.65978389,-56.09302000
8.66234389,-56.09302000
8.66490389,-56.09302000
8.66746389,-60.56398000
8.67002389,-56.09302000
8.67258389,-60.56398000
8.67514389,-60.56398000
8.67770389,-60.56398000
8.68026389,-60.56398000
8.68282389,-60.56398000
8.68538389,-60.56398000
8.68794389,-60.56398000
8.69050389,-60.56398000
8.69306389,-60.56398000
8.69562389,-60.56398000
8.69818389,-60.56398000
8.70074389,-60.56398000
8.70330389,-60.56398000
8.70586389,-60.56398000
8.70842389,-60.56398000
8.71098389,-60.56398000
8.71354389,-60.56398000
8.71610389,-65.03493000
8.71866389,-65.03493000
8.72122389,-65.03493000
8.72378389,-65.03493000
8.72634389,-65.03493000
8.72890389,-69.50591000
8.73146389,-65.03493000
8.73402389,-65.03493000
8.73658389,-69.50591000
8.73914389,-69.50591000
8.74170389,-69.50591000
8.74426389,-69.50591000
8.74682389,-69.50591000
8.74938389,-69.50591000
8.75194389,-69.50591000
8.75450389,-69.50591000
8.75706389,-65.03493000
8.75962389,-69.50591000
8.76218389,-69.50591000
8.76474389,-69.50591000
8.76730389,-69.50591000
8.76986389,-69.50591000
8.77242389,-69.50591000
8.77498389,-69.50591000
8.77754389,-69.50591000
8.78010389,-69.50591000
8.78266389,-69.50591000
8.78522389,-69.50591000
8.78778389,-69.50591000
8.79034389,-69.50591000
8.79290389,-69.50591000
8.79546389,-69.50591000
8.79802389,-69.50591000
8.80058389,-69.50591000
8.80314389,-73.99212000
8.80570389,-73.99212000
8.80826389,-69.50591000
8.81082389,-69.50591000
8.81338389,-73.99212000
8.81594389,-73.99212000
8.81850389,-73.99212000
8.82106389,-78.46308000
8.82362389,-73.99212000
8.82618389,-73.99212000
8.82874389,-73.99212000
8.83130389,-78.46308000
8.83386389,-78.46308000
8.83642389,-73.99212000
8.83898389,-78.46308000
8.84154389,-78.46308000
8.84410389,-78.46308000
8.84666389,-78.46308000
8.84922389,-78.46308000
8.85178389,-78.46308000
8.85434389,-78.46308000
8.85690389,-78.46308000
8.85946389,-78.46308000
8.86202389,-78.46308000
8.86458389,-78.46308000
8.86714389,-78.46308000
8.86970389,-78.46308000
8.87226389,-78.46308000
8.87482389,-78.46308000
8.87738389,-78.46308000
8.87994389,-78.46308000
8.88250389,-78.46308000
8.88506389,-78.46308000
8.88762389,-78.46308000
8.89018389,-78.46308000
8.89274389,-78.46308000
8.89530389,-78.46308000
8.89786389,-78.46308000
8.90042389,-78.46308000
8.90298389,-78.46308000
8.90554389,-78.46308000
8.90810389,-78.46308000
8.91066389,-78.46308000
8.91322389,-78.46308000
8.91578389,-78.46308000
8.91834389,-78.46308000
8.92090389,-78.46308000
8.92346389,-78.46308000
8.92602389,-82.93404000
8.92858389,-78.46308000
8.93114389,-82.93404000
8.93370389,-82.93404000
8.93626389,-78.46308000
8.93882389,-82.93404000
8.94138389,-82.93404000
8.94394389,-78.46308000
8.94650389,-82.93404000
8.94906389,-78.46308000
8.95162389,-82.93404000
8.95418389,-78.46308000
8.95674389,-82.93404000
8.95930389,-82.93404000
8.96186389,-82.93404000
8.96442389,-82.93404000
8.96698389,-82.93404000
8.96954389,-82.93404000
8.97210389,-82.93404000
8.97466389,-82.93404000
8.97722389,-82.93404000
8.97978389,-82.93404000
8.98234389,-82.93404000
8.98490389,-82.93404000
8.98746389,-82.93404000
8.99002389,-82.93404000
8.99258389,-82.93404000
8.99514389,-82.93404000
8.99770389,-82.93404000
9.00026389,-82.93404000
9.00282389,-82.93404000
9.00538389,-82.93404000
9.00794389,-82.93404000
9.01050389,-82.93404000
9.01306389,-82.93404000
9.01562389,-82.93404000
9.01818389,-82.93404000
9.02074389,-82.93404000
9.02330389,-82.93404000
9.02586389,-82.93404000
9.02842389,-82.93404000
9.03098389,-87.40501000
9.03354389,-82.93404000
9.03610389,-82.93404000
9.03866389,-82.93404000
9.04122389,-82.93404000
9.04378389,-82.93404000
9.04634389,-82.93404000
9.04890389,-82.93404000
9.05146389,-82.93404000
9.05402389,-82.93404000
9.05658389,-82.93404000
9.05914389,-87.40501000
9.06170389,-82.93404000
9.06426389,-82.93404000
9.06682389,-82.93404000
9.06938389,-87.40501000
9.07194389,-82.93404000
9.07450389,-82.93404000
9.07706389,-87.40501000
9.07962389,-82.93404000
9.08218389,-87.40501000
9.08474389,-87.40501000
9.08730389,-87.40501000
9.08986389,-82.93404000
9.09242389,-82.93404000
9.09498389,-82.93404000
9.09754389,-82.93404000
9.10010389,-82.93404000
9.10266389,-82.93404000
9.10522389,-82.93404000
9.10778389,-82.93404000
9.11034389,-82.93404000
9.11290389,-82.93404000
9.11546389,-82.93404000
9.11802389,-82.93404000
9.12058389,-82.93404000
9.12314389,-82.93404000
9.12570389,-82.93404000
9.12826389,-82.93404000
9.13082389,-82.93404000
9.13338389,-82.93404000
9.13594389,-82.93404000
9.13850389,-82.93404000
9.14106389,-82.93404000
9.14362389,-82.93404000
9.14618389,-82.93404000
9.14874389,-82.93404000
9.15130389,-87.40501000
9.15386389,-82.93404000
9.15642389,-82.93404000
9.15898389,-82.93404000
9.16154389,-82.93404000
9.16410389,-82.93404000
9.16666389,-82.93404000
9.16922389,-82.93404000
9.17178389,-82.93404000
9.17434389,-82.93404000
9.17690389,-82.93404000
9.17946389,-82.93404000
9.18202389,-82.93404000
9.18458389,-82.93404000
9.18714389,-82.93404000
9.18970389,-82.93404000
9.19226389,-82.93404000
9.19482389,-82.93404000
9.19738389,-82.93404000
9.19994389,-82.93404000
9.20250389,-82.93404000
9.20506389,-82.93404000
9.20762389,-82.93404000
9.21018389,-82.93404000
9.21274389,-82.93404000
9.21530389,-82.93404000
9.21786389,-82.93404000
9.22042389,-82.93404000
9.22298389,-82.93404000
9.22554389,-82.93404000
9.22810389,-82.93404000
9.23066389,-82.93404000
9.23322389,-82.93404000
9.23578389,-82.93404000
9.23834389,-82.93404000
9.24090389,-82.93404000
9.24346389,-82.93404000
9.24602389,-82.93404000
9.24858389,-82.93404000
9.25114389,-82.93404000
9.25370389,-82.93404000
9.25626389,-82.93404000
9.25882389,-82.93404000
9.26138389,-82.93404000
9.26394389,-82.93404000
9.26650389,-82.93404000
9.26906389,-82.93404000
9.27162389,-82.93404000
9.27418389,-82.93404000
9.27674389,-82.93404000
9.27930389,-82.93404000
9.28186389,-82.93404000
9.28442389,-82.93404000
9.28698389,-82.93404000
9.28954389,-82.93404000
9.29210389,-82.93404000
9.29466389,-78.46308000
9.29722389,-82.93404000
9.29978389,-78.46308000
9.30234389,-82.93404000
9.30490389,-78.46308000
9.30746389,-78.46308000
9.31002389,-82.93404000
9.31258389,-82.93404000
9.31514389,-82.93404000
9.31770389,-78.46308000
9.32026389,-78.46308000
9.32282389,-82.93404000
9.32538389,-78.46308000
9.32794389,-78.46308000
9.33050389,-78.46308000
9.33306389,-78.46308000
9.33562389,-78.46308000
9.33818389,-82.93404000
9.34074389,-78.46308000
9.34330389,-78.46308000
9.34586389,-78.46308000
9.34842389,-78.46308000
9.35098389,-78.46308000
9.35354389,-78.46308000
9.35610389,-82.93404000
9.35866389,-78.46308000
9.36122389,-78.46308000
9.36378389,-78.46308000
9.36634389,-78.46308000
9.36890389,-78.46308000
9.37146389,-78.46308000
9.37402389,-78.46308000
9.37658389,-78.46308000
9.37914389,-78.46308000
9.38170389,-78.46308000
9.38426389,-78.46308000
9.38682389,-78.46308000
9.38938389,-78.46308000
9.39194389,-78.46308000
9.39450389,-78.46308000
9.39706389,-78.46308000
9.39962389,-78.46308000
9.40218389,-78.46308000
9.40474389,-78.46308000
9.40730389,-78.46308000
9.40986389,-78.46308000
9.41242389,-78.46308000
9.41498389,-78.46308000
9.41754389,-78.46308000
9.42010389,-78.46308000
9.42266389,-78.46308000
9.42522389,-78.46308000
9.42778389,-78.46308000
9.43034389,-78.46308000
9.43290389,-78.46308000
9.43546389,-78.46308000
9.43802389,-78.46308000
9.44058389,-78.46308000
9.44314389,-78.46308000
9.44570389,-78.46308000
9.44826389,-78.46308000
9.45082389,-78.46308000
9.45338389,-78.46308000
9.45594389,-78.46308000
9.45850389,-78.46308000
9.46106389,-78.46308000
9.46362389,-78.46308000
9.46618389,-78.46308000
9.46874389,-78.46308000
9.47130389,-78.46308000
9.47386389,-78.46308000
9.47642389,-78.46308000
9.47898389,-78.46308000
9.48154389,-78.46308000
9.48410389,-78.46308000
9.48666389,-78.46308000
9.48922389,-78.46308000
9.49178389,-78.46308000
9.49434389,-78.46308000
9.49690389,-78.46308000
9.49946389,-78.46308000
9.50202389,-78.46308000
9.50458389,-78.46308000
9.50714389,-78.46308000
9.50970389,-78.46308000
9.51226389,-78.46308000
9.51482389,-78.46308000
9.51738389,-78.46308000
9.51994389,-78.46308000
9.52250389,-78.46308000
9.52506389,-78.46308000
9.52762389,-78.46308000
9.53018389,-78.46308000
9.53274389,-78.46308000
9.53530389,-78.46308000
9.53786389,-78.46308000
9.54042389,-78.46308000
9.54298389,-78.46308000
9.54554389,-78.46308000
9.54810389,-78.46308000
9.55066389,-78.46308000
9.55322389,-78.46308000
9.55578389,-78.46308000
9.55834389,-78.46308000
9.56090389,-78.46308000
9.56346389,-78.46308000
9.56602389,-78.46308000
9.56858389,-78.46308000
9.57114389,-78.46308000
9.57370389,-78.46308000
9.57626389,-78.46308000
9.57882389,-78.46308000
9.58138389,-78.46308000
9.58394389,-78.46308000
9.58650389,-78.46308000
9.58906389,-78.46308000
9.59162389,-78.46308000
9.59418389,-78.46308000
9.59674389,-78.46308000
9.59930389,-78.46308000
9.60186389,-78.46308000
9.60442389,-78.46308000
9.60698389,-78.46308000
9.60954389,-78.46308000
9.61210389,-78.46308000
9.61466389,-78.46308000
9.61722389,-78.46308000
9.61978389,-78.46308000
9.62234389,-78.46308000
9.62490389,-78.46308000
9.62746389,-78.46308000
9.63002389,-78.46308000
9.63258389,-78.46308000
9.63514389,-78.46308000
9.63770389,-78.46308000
9.64026389,-78.46308000
9.64282389,-78.46308000
9.64538389,-78.46308000
9.64794389,-78.46308000
9.65050389,-78.46308000
9.65306389,-78.46308000
9.65562389,-78.46308000
9.65818389,-78.46308000
9.66074389,-78.46308000
9.66330389,-78.46308000
9.66586389,-78.46308000
9.66842389,-78.46308000
9.67098389,-78.46308000
9.67354389,-78.46308000
9.67610389,-78.46308000
9.67866389,-78.46308000
9.68122389,-78.46308000
9.68378389,-78.46308000
9.68634389,-78.46308000
9.68890389,-78.46308000
9.69146389,-78.46308000
9.69402389,-78.46308000
9.69658389,-78.46308000
9.69914389,-78.46308000
9.70170389,-78.46308000
9.70426389,-73.99212000
9.70682389,-73.99212000
9.70938389,-78.46308000
9.71194389,-78.46308000
9.71450389,-78.46308000
9.71706389,-78.46308000
9.71962389,-78.46308000
9.72218389,-78.46308000
9.72474389,-73.99212000
9.72730389,-73.99212000
9.72986389,-78.46308000
9.73242389,-73.99212000
9.73498389,-73.99212000
9.73754389,-73.99212000
9.74010389,-73.99212000
9.74266389,-73.99212000
9.74522389,-73.99212000
9.74778389,-73.99212000
9.75034389,-73.99212000
9.75290389,-73.99212000
9.75546389,-73.99212000
9.75802389,-73.99212000
9.76058389,-73.99212000
9.76314389,-73.99212000
9.76570389,-73.99212000
9.76826389,-78.46308000
9.77082389,-73.99212000
9.77338389,-73.99212000
9.77594389,-73.99212000
9.77850389,-73.99212000
9.78106389,-73.99212000
9.78362389,-73.99212000
9.78618389,-73.99212000
9.78874389,-78.46308000
9.79130389,-73.99212000
9.79386389,-73.99212000
9.79642389,-73.99212000
9.79898389,-73.99212000
9.80154389,-78.46308000
9.80410389,-73.99212000
9.80666389,-73.99212000
9.80922388,-73.99212000
9.81178388,-73.99212000
9.81434388,-73.99212000
9.81690388,-73.99212000
9.81946388,-73.99212000
9.82202388,-73.99212000
9.82458388,-73.99212000
9.82714388,-73.99212000
9.82970388,-78.46308000
9.83226388,-69.50591000
9.83482388,-73.99212000
9.83738388,-73.99212000
9.83994388,-73.99212000
9.84250388,-73.99212000
9.84506388,-78.46308000
9.84762388,-73.99212000
9.85018388,-73.99212000
9.85274388,-73.99212000
9.85530388,-73.99212000
9.85786388,-73.99212000
9.86042388,-78.46308000
9.86298388,-73.99212000
9.86554388,-73.99212000
9.86810388,-78.46308000
9.87066388,-73.99212000
9.87322388,-73.99212000
9.87578388,-73.99212000
9.87834388,-78.46308000
9.88090388,-73.99212000
9.88346388,-73.99212000
9.88602388,-73.99212000
9.88858388,-78.46308000
9.89114388,-73.99212000
9.89370388,-73.99212000
9.89626388,-73.99212000
9.89882388,-73.99212000
9.90138388,-73.99212000
9.90394388,-73.99212000
9.90650388,-73.99212000
9.90906388,-73.99212000
9.91162388,-73.99212000
9.91418388,-78.46308000
9.91674388,-73.99212000
9.91930388,-73.99212000
9.92186388,-78.46308000
9.92442388,-73.99212000
9.92698388,-78.46308000
9.92954388,-78.46308000
9.93210388,-73.99212000
9.93466388,-73.99212000
9.93722388,-78.46308000
9.93978388,-78.46308000
9.94234388,-73.99212000
9.94490388,-78.46308000
9.94746388,-78.46308000
9.95002388,-78.46308000
9.95258388,-73.99212000
9.95514388,-73.99212000
9.95770388,-73.99212000
9.96026388,-73.99212000
9.96282388,-78.46308000
9.96538388,-73.99212000
9.96794388,-73.99212000
9.97050388,-73.99212000
9.97306388,-73.99212000
9.97562388,-73.99212000
9.97818388,-78.46308000
9.98074388,-73.99212000
9.98330388,-78.46308000
9.98586388,-78.46308000
9.98842388,-73.99212000
9.99098388,-73.99212000
9.99354388,-73.99212000
9.99610388,-78.46308000
9.99866388,-78.46308000
10.00122388,-78.46308000
10.00378388,-73.99212000
10.00634388,-73.99212000
10.00890388,-73.99212000
10.01146388,-78.46308000
10.01402388,-78.46308000
10.01658388,-73.99212000
10.01914388,-78.46308000
10.02170388,-73.99212000
10.02426388,-73.99212000
10.02682388,-73.99212000
10.02938388,-73.99212000
10.03194388,-78.46308000
10.03450388,-73.99212000
10.03706388,-73.99212000
10.03962388,-73.99212000
10.04218388,-73.99212000
10.04474388,-73.99212000
10.04730388,-73.99212000
10.04986388,-73.99212000
10.05242388,-73.99212000
10.05498388,-73.99212000
10.05754388,-73.99212000
10.06010388,-78.46308000
10.06266388,-73.99212000
10.06522388,-78.46308000
10.06778388,-73.99212000
10.07034388,-73.99212000
10.07290388,-73.99212000
10.07546388,-73.99212000
10.07802388,-73.99212000
10.08058388,-73.99212000
10.08314388,-73.99212000
10.08570388,-73.99212000
10.08826388,-73.99212000
10.09082388,-73.99212000
10.09338388,-73.99212000
10.09594388,-73.99212000
10.09850388,-73.99212000
10.10106388,-73.99212000
10.10362388,-73.99212000
10.10618388,-78.46308000
10.10874388,-73.99212000
10.11130388,-73.99212000
10.11386388,-73.99212000
10.11642388,-73.99212000
10.11898388,-73.99212000
10.12154388,-73.99212000
10.12410388,-73.99212000
10.12666388,-73.99212000
10.12922388,-73.99212000
10.13178388,-73.99212000
10.13434388,-73.99212000
10.13690388,-69.50591000
10.13946388,-73.99212000
10.14202388,-73.99212000
10.14458388,-73.99212000
10.14714388,-69.50591000
10.14970388,-73.99212000
10.15226388,-73.99212000
10.15482388,-73.99212000
10.15738388,-73.99212000
10.15994388,-73.99212000
10.16250388,-69.50591000
10.16506388,-69.50591000
10.16762388,-69.50591000
10.17018388,-73.99212000
10.17274388,-73.99212000
10.17530388,-69.50591000
10.17786388,-69.50591000
10.18042388,-73.99212000
10.18298388,-69.50591000
10.18554388,-69.50591000
10.18810388,-69.50591000
10.19066388,-73.99212000
10.19322388,-73.99212000
10.19578388,-69.50591000
10.19834388,-69.50591000
10.20090388,-69.50591000
10.20346388,-69.50591000
10.20602388,-69.50591000
10.20858388,-69.50591000
10.21114388,-69.50591000
10.21370388,-69.50591000
10.21626388,-69.50591000
10.21882388,-69.50591000
10.22138388,-69.50591000
10.22394388,-69.50591000
10.22650388,-69.50591000
10.22906388,-69.50591000
10.23162388,-69.50591000
10.23418388,-69.50591000
10.23674388,-73.99212000
10.23930388,-73.99212000
10.24186388,-69.50591000
10.24442388,-73.99212000
10.24698388,-69.50591000
10.24954388,-69.50591000
10.25210388,-69.50591000
10.25466388,-69.50591000
10.25722388,-69.50591000
10.25978388,-69.50591000
10.26234388,-69.50591000
10.26490388,-69.50591000
10.26746388,-69.50591000
10.27002388,-69.50591000
10.27258388,-69.50591000
10.27514388,-73.99212000
10.27770388,-69.50591000
10.28026388,-69.50591000
10.28282388,-69.50591000
10.28538388,-69.50591000
10.28794388,-69.50591000
10.29050388,-73.99212000
10.29306388,-69.50591000
10.29562388,-69.50591000
10.29818388,-73.99212000
10.30074388,-69.50591000
10.30330388,-69.50591000
10.30586388,-73.99212000
10.30842388,-69.50591000
10.31098388,-73.99212000
10.31354388,-73.99212000
10.31610388,-69.50591000
10.31866388,-69.50591000
10.32122388,-69.50591000
10.32378388,-69.50591000
10.32634388,-73.99212000
10.32890388,-69.50591000
10.33146388,-69.50591000
10.33402388,-69.50591000
10.33658388,-73.99212000
10.33914388,-69.50591000
10.34170388,-69.50591000
10.34426388,-69.50591000
10.34682388,-69.50591000
10.34938388,-69.50591000
10.35194388,-69.50591000
10.35450388,-69.50591000
10.35706388,-69.50591000
10.35962388,-69.50591000
10.36218388,-69.50591000
10.36474388,-69.50591000
10.36730388,-69.50591000
10.36986388,-69.50591000
10.37242388,-73.99212000
10.37498388,-69.50591000
10.37754388,-69.50591000
10.38010388,-69.50591000
10.38266388,-69.50591000
10.38522388,-73.99212000
10.38778388,-69.50591000
10.39034388,-69.50591000
10.39290388,-69.50591000
10.39546388,-73.99212000
10.39802388,-69.50591000
10.40058388,-69.50591000
10.40314388,-69.50591000
10.40570388,-69.50591000
10.40826388,-69.50591000
10.41082388,-69.50591000
10.41338388,-69.50591000
10.41594388,-69.50591000
10.41850388,-73.99212000
10.42106388,-69.50591000
10.42362388,-69.50591000
10.42618388,-69.50591000
10.42874388,-69.50591000
10.43130388,-69.50591000
10.43386388,-69.50591000
10.43642388,-69.50591000
10.43898388,-69.50591000
10.44154388,-69.50591000
10.44410388,-73.99212000
10.44666388,-69.50591000
10.44922388,-69.50591000
10.45178388,-69.50591000
10.45434388,-69.50591000
10.45690388,-69.50591000
10.45946388,-69.50591000
10.46202388,-69.50591000
10.46458388,-69.50591000
10.46714388,-73.99212000
10.46970388,-73.99212000
10.47226388,-73.99212000
10.47482388,-69.50591000
10.47738388,-73.99212000
10.47994388,-69.50591000
10.48250388,-69.50591000
10.48506388,-73.99212000
10.48762388,-69.50591000
10.49018388,-69.50591000
10.49274388,-69.50591000
10.49530388,-69.50591000
10.49786388,-69.50591000
10.50042388,-73.99212000
10.50298388,-69.50591000
10.50554388,-69.50591000
10.50810388,-73.99212000
10.51066388,-69.50591000
10.51322388,-69.50591000
10.51578388,-69.50591000
10.51834388,-73.99212000
10.52090388,-69.50591000
10.52346388,-73.99212000
10.52602388,-73.99212000
10.52858388,-69.50591000
10.53114388,-73.99212000
10.53370388,-69.50591000
10.53626388,-69.50591000
10.53882388,-73.99212000
10.54138388,-69.50591000
10.54394388,-69.50591000
10.54650388,-69.50591000
10.54906388,-73.99212000
10.55162388,-69.50591000
10.55418388,-73.99212000
10.55674388,-69.50591000
10.55930388,-69.50591000
10.56186388,-69.50591000
10.56442388,-69.50591000
10.56698388,-73.99212000
10.56954388,-69.50591000
10.57210388,-69.50591000
10.57466388,-69.50591000
10.57722388,-73.99212000
10.57978388,-69.50591000
10.58234388,-69.50591000
10.58490388,-69.50591000
10.58746388,-69.50591000
10.59002388,-69.50591000
10.59258388,-69.50591000
10.59514388,-69.50591000
10.59770388,-69.50591000
10.60026388,-69.50591000
10.60282388,-69.50591000
10.60538388,-69.50591000
10.60794388,-69.50591000
10.61050388,-69.50591000
10.61306388,-69.50591000
10.61562388,-69.50591000
10.61818388,-69.50591000
10.62074388,-69.50591000
10.62330388,-69.50591000
10.62586388,-69.50591000
10.62842388,-69.50591000
10.63098388,-69.50591000
10.63354388,-69.50591000
10.63610388,-69.50591000
10.63866388,-69.50591000
10.64122388,-69.50591000
10.64378388,-69.50591000
10.64634388,-69.50591000
10.64890388,-69.50591000
10.65146388,-69.50591000
10.65402388,-69.50591000
10.65658388,-69.50591000
10.65914388,-69.50591000
10.66170388,-69.50591000
10.66426388,-69.50591000
10.66682388,-69.50591000
10.66938388,-69.50591000
10.67194388,-69.50591000
10.67450388,-69.50591000
10.67706388,-69.50591000
10.67962388,-69.50591000
10.68218388,-69.50591000
10.68474388,-69.50591000
10.68730388,-69.50591000
10.68986388,-69.50591000
10.69242388,-69.50591000
10.69498388,-69.50591000
10.69754388,-69.50591000
10.70010388,-69.50591000
10.70266388,-69.50591000
10.70522388,-69.50591000
10.70778388,-69.50591000
10.71034388,-69.50591000
10.71290388,-69.50591000
10.71546388,-69.50591000
10.71802388,-69.50591000
10.72058388,-69.50591000
10.72314388,-69.50591000
10.72570388,-69.50591000
10.72826388,-69.50591000
10.73082388,-69.50591000
10.73338388,-73.99212000
10.73594388,-69.50591000
10.73850388,-69.50591000
10.74106388,-69.50591000
10.74362388,-69.50591000
10.74618388,-69.50591000
10.74874388,-73.99212000
10.75130388,-69.50591000
10.75386388,-69.50591000
10.75642388,-73.99212000
10.75898388,-69.50591000
10.76154388,-69.50591000
10.76410388,-69.50591000
10.76666388,-69.50591000
10.76922388,-73.99212000
10.77178388,-73.99212000
10.77434388,-73.99212000
10.77690388,-69.50591000
10.77946388,-69.50591000
10.78202388,-69.50591000
10.78458388,-69.50591000
10.78714388,-73.99212000
10.78970388,-69.50591000
10.79226388,-73.99212000
10.79482388,-69.50591000
10.79738388,-69.50591000
10.79994388,-69.50591000
10.80250388,-73.99212000
10.80506388,-69.50591000
10.80762388,-69.50591000
10.81018388,-69.50591000
10.81274388,-69.50591000
10.81530388,-69.50591000
10.81786388,-73.99212000
10.82042388,-69.50591000
10.82298388,-69.50591000
10.82554388,-73.99212000
10.82810388,-69.50591000
10.83066388,-69.50591000
10.83322388,-73.99212000
10.83578388,-73.99212000
10.83834388,-69.50591000
10.84090388,-69.50591000
10.84346388,-69.50591000
10.84602388,-69.50591000
10.84858388,-69.50591000
10.85114388,-69.50591000
10.85370388,-73.99212000
10.85626388,-69.50591000
10.85882388,-73.99212000
10.86138388,-69.50591000
10.86394388,-73.99212000
10.86650388,-69.50591000
10.86906388,-73.99212000
10.87162388,-73.99212000
10.87418388,-69.50591000
10.87674388,-73.99212000
10.87930388,-73.99212000
10.88186388,-69.50591000
10.88442388,-73.99212000
10.88698388,-69.50591000
10.88954388,-73.99212000
10.89210388,-73.99212000
10.89466388,-73.99212000
10.89722388,-73.99212000
10.89978388,-73.99212000
10.90234388,-73.99212000
10.90490388,-73.99212000
10.90746388,-73.99212000
10.91002388,-69.50591000
10.91258388,-69.50591000
10.91514388,-69.50591000
10.91770388,-73.99212000
10.92026388,-69.50591000
10.92282388,-73.99212000
10.92538388,-73.99212000
10.92794388,-69.50591000
10.93050388,-69.50591000
10.93306388,-69.50591000
10.93562388,-73.99212000
10.93818388,-69.50591000
10.94074388,-73.99212000
10.94330388,-73.99212000
10.94586388,-69.50591000
10.94842388,-73.99212000
10.95098388,-69.50591000
10.95354388,-73.99212000
10.95610388,-69.50591000
10.95866388,-69.50591000
10.96122388,-69.50591000
10.96378388,-73.99212000
10.96634388,-73.99212000
10.96890388,-73.99212000
10.97146388,-73.99212000
10.97402388,-69.50591000
10.97658388,-73.99212000
10.97914388,-69.50591000
10.98170388,-73.99212000
10.98426388,-73.99212000
10.98682388,-69.50591000
10.98938388,-69.50591000
10.99194388,-69.50591000
10.99450388,-69.50591000
10.99706388,-73.99212000
10.99962388,-69.50591000
11.00218388,-69.50591000
11.00474388,-69.50591000
11.00730388,-69.50591000
11.00986388,-69.50591000
11.01242388,-69.50591000
11.01498388,-69.50591000
11.01754388,-73.99212000
11.02010388,-69.50591000
11.02266388,-73.99212000
11.02522388,-69.50591000
11.02778388,-69.50591000
11.03034388,-73.99212000
11.03290388,-69.50591000
11.03546388,-73.99212000
11.03802388,-69.50591000
11.04058388,-69.50591000
11.04314388,-69.50591000
11.04570388,-73.99212000
11.04826388,-69.50591000
11.05082388,-69.50591000
11.05338388,-69.50591000
11.05594388,-69.50591000
11.05850388,-69.50591000
11.06106388,-69.50591000
11.06362388,-69.50591000
11.06618388,-69.50591000
11.06874388,-69.50591000
11.07130388,-69.50591000
11.07386388,-69.50591000
11.07642388,-69.50591000
11.07898388,-69.50591000
11.08154388,-73.99212000
11.08410388,-69.50591000
11.08666388,-69.50591000
11.08922388,-69.50591000
11.09178388,-69.50591000
11.09434388,-69.50591000
11.09690388,-69.50591000
11.09946388,-69.50591000
11.10202388,-69.50591000
11.10458388,-69.50591000
11.10714388,-69.50591000
11.10970388,-69.50591000
11.11226388,-69.50591000
11.11482388,-69.50591000
11.11738388,-69.50591000
11.11994388,-69.50591000
11.12250388,-69.50591000
11.12506388,-69.50591000
11.12762388,-69.50591000
11.13018388,-69.50591000
11.13274388,-69.50591000
11.13530388,-69.50591000
11.13786388,-69.50591000
11.14042388,-69.50591000
11.14298388,-69.50591000
11.14554388,-69.50591000
11.14810388,-69.50591000
11.15066388,-69.50591000
11.15322388,-69.50591000
11.15578388,-69.50591000
11.15834388,-69.50591000
11.16090388,-69.50591000
11.16346388,-69.50591000
11.16602388,-73.99212000
11.16858388,-69.50591000
11.17114388,-69.50591000
11.17370388,-69.50591000
11.17626388,-69.50591000
11.17882388,-69.50591000
11.18138388,-69.50591000
11.18394388,-69.50591000
11.18650388,-69.50591000
11.18906388,-69.50591000
11.19162388,-69.50591000
11.19418388,-69.50591000
11.19674388,-69.50591000
11.19930388,-69.50591000
11.20186388,-69.50591000
11.20442388,-69.50591000
11.20698388,-69.50591000
11.20954388,-69.50591000
11.21210388,-73.99212000
11.21466388,-69.50591000
11.21722388,-69.50591000
11.21978388,-69.50591000
11.22234388,-69.50591000
11.22490388,-69.50591000
11.22746388,-69.50591000
11.23002388,-69.50591000
11.23258388,-69.50591000
11.23514388,-69.50591000
11.23770388,-69.50591000
11.24026388,-69.50591000
11.24282388,-69.50591000
11.24538388,-69.50591000
11.24794388,-69.50591000
11.25050388,-69.50591000
11.25306388,-69.50591000
11.25562388,-69.50591000
11.25818388,-69.50591000
11.26074388,-69.50591000
11.26330388,-69.50591000
11.26586388,-69.50591000
11.26842388,-69.50591000
11.27098388,-69.50591000
11.27354388,-69.50591000
11.27610388,-69.50591000
11.27866388,-69.50591000
11.28122388,-69.50591000
11.28378388,-69.50591000
11.28634388,-69.50591000
11.28890388,-69.50591000
11.29146388,-69.50591000
11.29402388,-69.50591000
11.29658388,-69.50591000
11.29914388,-69.50591000
11.30170388,-69.50591000
11.30426388,-69.50591000
11.30682388,-69.50591000
11.30938388,-69.50591000
11.31194388,-69.50591000
11.31450388,-69.50591000
11.31706388,-69.50591000
11.31962388,-69.50591000
11.32218388,-69.50591000
11.32474388,-69.50591000
11.32730388,-69.50591000
11.32986388,-69.50591000
11.33242388,-69.50591000
11.33498388,-69.50591000
11.33754388,-69.50591000
11.34010388,-69.50591000
11.34266388,-69.50591000
11.34522388,-69.50591000
11.34778388,-69.50591000
11.35034388,-69.50591000
11.35290388,-69.50591000
11.35546388,-69.50591000
11.35802388,-69.50591000
11.36058388,-69.50591000
11.36314388,-69.50591000
11.36570388,-69.50591000
11.36826388,-69.50591000
11.37082388,-69.50591000
11.37338388,-69.50591000
11.37594388,-69.50591000
11.37850388,-73.99212000
11.38106388,-69.50591000
11.38362388,-69.50591000
11.38618388,-69.50591000
11.38874388,-69.50591000
11.39130388,-69.50591000
11.39386388,-69.50591000
11.39642388,-69.50591000
11.39898388,-69.50591000
11.40154388,-69.50591000
11.40410388,-69.50591000
11.40666388,-69.50591000
11.40922388,-69.50591000
11.41178388,-69.50591000
11.41434388,-69.50591000
11.41690388,-69.50591000
11.41946388,-69.50591000
11.42202388,-73.99212000
11.42458388,-69.50591000
11.42714388,-69.50591000
11.42970388,-73.99212000
11.43226388,-69.50591000
11.43482388,-69.50591000
11.43738388,-69.50591000
11.43994388,-73.99212000
11.44250388,-69.50591000
11.44506388,-69.50591000
11.44762388,-73.99212000
11.45018388,-69.50591000
11.45274387,-69.50591000
11.45530387,-69.50591000
11.45786387,-69.50591000
11.46042387,-73.99212000
11.46298387,-69.50591000
11.46554387,-69.50591000
11.46810387,-69.50591000
11.47066387,-69.50591000
11.47322387,-69.50591000
11.47578387,-69.50591000
11.47834387,-69.50591000
11.48090387,-69.50591000
11.48346387,-69.50591000
11.48602387,-69.50591000
11.48858387,-69.50591000
11.49114387,-69.50591000
11.49370387,-69.50591000
11.49626387,-69.50591000
11.49882387,-69.50591000
11.50138387,-69.50591000
11.50394387,-69.50591000
11.50650387,-69.50591000
11.50906387,-69.50591000
11.51162387,-69.50591000
11.51418387,-69.50591000
11.51674387,-69.50591000
11.51930387,-69.50591000
11.52186387,-69.50591000
11.52442387,-69.50591000
11.52698387,-69.50591000
11.52954387,-69.50591000
11.53210387,-69.50591000
11.53466387,-69.50591000
11.53722387,-69.50591000
11.53978387,-69.50591000
11.54234387,-69.50591000
11.54490387,-69.50591000
11.54746387,-69.50591000
11.55002387,-69.50591000
11.55258387,-69.50591000
11.55514387,-69.50591000
11.55770387,-69.50591000
11.56026387,-69.50591000
11.56282387,-69.50591000
11.56538387,-69.50591000
11.56794387,-69.50591000
11.57050387,-73.99212000
11.57306387,-69.50591000
11.57562387,-69.50591000
11.57818387,-69.50591000
11.58074387,-69.50591000
11.58330387,-69.50591000
11.58586387,-69.50591000
11.58842387,-73.99212000
11.59098387,-69.50591000
11.59354387,-69.50591000
11.59610387,-69.50591000
11.59866387,-69.50591000
11.60122387,-69.50591000
11.60378387,-69.50591000
11.60634387,-69.50591000
11.60890387,-69.50591000
11.61146387,-69.50591000
11.61402387,-73.99212000
11.61658387,-69.50591000
11.61914387,-69.50591000
11.62170387,-69.50591000
11.62426387,-69.50591000
11.62682387,-69.50591000
11.62938387,-69.50591000
11.63194387,-69.50591000
11.63450387,-69.50591000
11.63706387,-69.50591000
11.63962387,-69.50591000
11.64218387,-69.50591000
11.64474387,-69.50591000
11.64730387,-69.50591000
11.64986387,-69.50591000
11.65242387,-69.50591000
11.65498387,-73.99212000
11.65754387,-73.99212000
11.66010387,-69.50591000
11.66266387,-69.50591000
11.66522387,-73.99212000
11.66778387,-69.50591000
11.67034387,-69.50591000
11.67290387,-69.50591000
11.67546387,-69.50591000
11.67802387,-69.50591000
11.68058387,-69.50591000
11.68314387,-69.50591000
11.68570387,-69.50591000
11.68826387,-73.99212000
11.69082387,-69.50591000
11.69338387,-69.50591000
11.69594387,-69.50591000
11.69850387,-73.99212000
11.70106387,-69.50591000
11.70362387,-69.50591000
11.70618387,-69.50591000
11.70874387,-69.50591000
11.71130387,-69.50591000
11.71386387,-69.50591000
11.71642387,-69.50591000
11.71898387,-69.50591000
11.72154387,-69.50591000
11.72410387,-69.50591000
11.72666387,-73.99212000
11.72922387,-69.50591000
11.73178387,-73.99212000
11.73434387,-73.99212000
11.73690387,-69.50591000
11.73946387,-69.50591000
11.74202387,-69.50591000
11.74458387,-69.50591000
11.74714387,-73.99212000
11.74970387,-69.50591000
11.75226387,-69.50591000
11.75482387,-69.50591000
11.75738387,-73.99212000
11.75994387,-69.50591000
11.76250387,-69.50591000
11.76506387,-73.99212000
11.76762387,-73.99212000
11.77018387,-69.50591000
11.77274387,-69.50591000
11.77530387,-69.50591000
11.77786387,-69.50591000
11.78042387,-69.50591000
11.78298387,-69.50591000
11.78554387,-73.99212000
11.78810387,-69.50591000
11.79066387,-69.50591000
11.79322387,-73.99212000
11.79578387,-69.50591000
11.79834387,-69.50591000
11.80090387,-69.50591000
11.80346387,-73.99212000
11.80602387,-69.50591000
11.80858387,-69.50591000
11.81114387,-69.50591000
11.81370387,-69.50591000
11.81626387,-69.50591000
11.81882387,-73.99212000
11.82138387,-69.50591000
11.82394387,-69.50591000
11.82650387,-69.50591000
11.82906387,-69.50591000
11.83162387,-73.99212000
11.83418387,-69.50591000
11.83674387,-69.50591000
11.83930387,-73.99212000
11.84186387,-69.50591000
11.84442387,-69.50591000
11.84698387,-69.50591000
11.84954387,-69.50591000
11.85210387,-73.99212000
11.85466387,-69.50591000
11.85722387,-69.50591000
11.85978387,-69.50591000
11.86234387,-69.50591000
11.86490387,-69.50591000
11.86746387,-69.50591000
11.87002387,-69.50591000
11.87258387,-69.50591000
11.87514387,-69.50591000
11.87770387,-69.50591000
11.88026387,-69.50591000
11.88282387,-69.50591000
11.88538387,-69.50591000
11.88794387,-69.50591000
11.89050387,-69.50591000
11.89306387,-69.50591000
11.89562387,-69.50591000
11.89818387,-69.50591000
11.90074387,-69.50591000
11.90330387,-73.99212000
11.90586387,-69.50591000
11.90842387,-69.50591000
11.91098387,-69.50591000
11.91354387,-69.50591000
11.91610387,-69.50591000
11.91866387,-69.50591000
11.92122387,-69.50591000
11.92378387,-69.50591000
11.92634387,-73.99212000
11.92890387,-69.50591000
11.93146387,-69.50591000
11.93402387,-69.50591000
11.93658387,-69.50591000
11.93914387,-69.50591000
11.94170387,-69.50591000
11.94426387,-69.50591000
11.94682387,-69.50591000
11.94938387,-73.99212000
11.95194387,-69.50591000
11.95450387,-69.50591000
11.95706387,-69.50591000
11.95962387,-69.50591000
11.96218387,-69.50591000
11.96474387,-69.50591000
11.96730387,-69.50591000
11.96986387,-69.50591000
11.97242387,-69.50591000
11.97498387,-69.50591000
11.97754387,-69.50591000
11.98010387,-69.50591000
11.98266387,-69.50591000
11.98522387,-69.50591000
11.98778387,-69.50591000
11.99034387,-69.50591000
11.99290387,-69.50591000
11.99546387,-69.50591000
11.99802387,-69.50591000
12.00058387,-69.50591000
12.00314387,-69.50591000
12.00570387,-69.50591000
12.00826387,-69.50591000
12.01082387,-69.50591000
12.01338387,-69.50591000
12.01594387,-69.50591000
12.01850387,-69.50591000
12.02106387,-69.50591000
12.02362387,-69.50591000
12.02618387,-69.50591000
12.02874387,-69.50591000
12.03130387,-69.50591000
12.03386387,-69.50591000
12.03642387,-69.50591000
12.03898387,-69.50591000
12.04154387,-69.50591000
12.04410387,-69.50591000
12.04666387,-69.50591000
12.04922387,-69.50591000
12.05178387,-69.50591000
12.05434387,-69.50591000
12.05690387,-69.50591000
12.05946387,-69.50591000
12.06202387,-69.50591000
12.06458387,-69.50591000
12.06714387,-69.50591000
12.06970387,-69.50591000
12.07226387,-69.50591000
12.07482387,-69.50591000
12.07738387,-69.50591000
12.07994387,-69.50591000
12.08250387,-69.50591000
12.08506387,-69.50591000
12.08762387,-69.50591000
12.09018387,-69.50591000
12.09274387,-69.50591000
12.09530387,-69.50591000
12.09786387,-69.50591000
12.10042387,-69.50591000
12.10298387,-69.50591000
12.10554387,-69.50591000
12.10810387,-69.50591000
12.11066387,-69.50591000
12.11322387,-69.50591000
12.11578387,-69.50591000
12.11834387,-69.50591000
12.12090387,-69.50591000
12.12346387,-69.50591000
12.12602387,-69.50591000
12.12858387,-69.50591000
12.13114387,-69.50591000
12.13370387,-69.50591000
12.13626387,-69.50591000
12.13882387,-69.50591000
12.14138387,-69.50591000
12.14394387,-69.50591000
12.14650387,-69.50591000
12.14906387,-69.50591000
12.15162387,-69.50591000
12.15418387,-69.50591000
12.15674387,-69.50591000
12.15930387,-69.50591000
12.16186387,-69.50591000
12.16442387,-69.50591000
12.16698387,-69.50591000
12.16954387,-69.50591000
12.17210387,-69.50591000
12.17466387,-69.50591000
12.17722387,-69.50591000
12.17978387,-69.50591000
12.18234387,-69.50591000
12.18490387,-69.50591000
12.18746387,-69.50591000
12.19002387,-69.50591000
12.19258387,-69.50591000
12.19514387,-69.50591000
12.19770387,-69.50591000
12.20026387,-69.50591000
12.20282387,-69.50591000
12.20538387,-69.50591000
12.20794387,-69.50591000
12.21050387,-69.50591000
12.21306387,-69.50591000
12.21562387,-69.50591000
12.21818387,-69.50591000
12.22074387,-69.50591000
12.22330387,-69.50591000
12.22586387,-69.50591000
12.22842387,-69.50591000
12.23098387,-69.50591000
12.23354387,-69.50591000
12.23610387,-69.50591000
12.23866387,-69.50591000
12.24122387,-69.50591000
12.24378387,-69.50591000
12.24634387,-69.50591000
12.24890387,-69.50591000
12.25146387,-69.50591000
12.25402387,-69.50591000
12.25658387,-69.50591000
12.25914387,-69.50591000
12.26170387,-69.50591000
12.26426387,-69.50591000
12.26682387,-69.50591000
12.26938387,-69.50591000
12.27194387,-69.50591000
12.27450387,-69.50591000
12.27706387,-69.50591000
12.27962387,-69.50591000
12.28218387,-69.50591000
12.28474387,-69.50591000
12.28730387,-69.50591000
12.28986387,-69.50591000
12.29242387,-69.50591000
12.29498387,-69.50591000
12.29754387,-69.50591000
12.30010387,-69.50591000
12.30266387,-69.50591000
12.30522387,-69.50591000
12.30778387,-69.50591000
12.31034387,-69.50591000
12.31290387,-69.50591000
12.31546387,-69.50591000
12.31802387,-69.50591000
12.32058387,-69.50591000
12.32314387,-69.50591000
12.32570387,-69.50591000
12.32826387,-69.50591000
12.33082387,-69.50591000
12.33338387,-69.50591000
12.33594387,-69.50591000
12.33850387,-69.50591000
12.34106387,-69.50591000
12.34362387,-69.50591000
12.34618387,-69.50591000
12.34874387,-69.50591000
12.35130387,-69.50591000
12.35386387,-69.50591000
12.35642387,-69.50591000
12.35898387,-69.50591000
12.36154387,-69.50591000
12.36410387,-69.50591000
12.36666387,-69.50591000
12.36922387,-69.50591000
12.37178387,-69.50591000
12.37434387,-69.50591000
12.37690387,-69.50591000
12.37946387,-69.50591000
12.38202387,-69.50591000
12.38458387,-69.50591000
12.38714387,-69.50591000
12.38970387,-69.50591000
12.39226387,-69.50591000
12.39482387,-69.50591000
12.39738387,-69.50591000
12.39994387,-69.50591000
12.40250387,-69.50591000
12.40506387,-69.50591000
12.40762387,-69.50591000
12.41018387,-69.50591000
12.41274387,-69.50591000
12.41530387,-69.50591000
12.41786387,-69.50591000
12.42042387,-69.50591000
12.42298387,-69.50591000
12.42554387,-69.50591000
12.42810387,-69.50591000
12.43066387,-69.50591000
12.43322387,-69.50591000
12.43578387,-69.50591000
12.43834387,-69.50591000
12.44090387,-69.50591000
12.44346387,-69.50591000
12.44602387,-69.50591000
12.44858387,-69.50591000
12.45114387,-69.50591000
12.45370387,-69.50591000
12.45626387,-69.50591000
12.45882387,-69.50591000
12.46138387,-69.50591000
12.46394387,-69.50591000
12.46650387,-69.50591000
12.46906387,-69.50591000
12.47162387,-69.50591000
12.47418387,-69.50591000
12.47674387,-69.50591000
12.47930387,-69.50591000
12.48186387,-69.50591000
12.48442387,-69.50591000
12.48698387,-69.50591000
12.48954387,-69.50591000
12.49210387,-69.50591000
12.49466387,-69.50591000
12.49722387,-69.50591000
12.49978387,-69.50591000
12.50234387,-69.50591000
12.50490387,-69.50591000
12.50746387,-69.50591000
12.51002387,-69.50591000
12.51258387,-69.50591000
12.51514387,-69.50591000
12.51770387,-69.50591000
12.52026387,-69.50591000
12.52282387,-69.50591000
12.52538387,-69.50591000
12.52794387,-69.50591000
12.53050387,-69.50591000
12.53306387,-69.50591000
12.53562387,-69.50591000
12.53818387,-69.50591000
12.54074387,-73.99212000
12.54330387,-69.50591000
12.54586387,-69.50591000
12.54842387,-69.50591000
12.55098387,-69.50591000
12.55354387,-69.50591000
12.55610387,-69.50591000
12.55866387,-69.50591000
12.56122387,-69.50591000
12.56378387,-69.50591000
12.56634387,-73.99212000
12.56890387,-73.99212000
12.57146387,-69.50591000
12.57402387,-69.50591000
12.57658387,-69.50591000
12.57914387,-69.50591000
12.58170387,-69.50591000
12.58426387,-73.99212000
12.58682387,-73.99212000
12.58938387,-69.50591000
12.59194387,-69.50591000
12.59450387,-69.50591000
12.59706387,-69.50591000
12.59962387,-69.50591000
12.60218387,-69.50591000
12.60474387,-69.50591000
12.60730387,-69.50591000
12.60986387,-69.50591000
12.61242387,-69.50591000
12.61498387,-69.50591000
12.61754387,-69.50591000
12.62010387,-69.50591000
12.62266387,-69.50591000
12.62522387,-69.50591000
12.62778387,-69.50591000
12.63034387,-69.50591000
12.63290387,-69.50591000
12.63546387,-69.50591000
12.63802387,-69.50591000
12.64058387,-69.50591000
12.64314387,-69.50591000
12.64570387,-69.50591000
12.64826387,-69.50591000
12.65082387,-69.50591000
12.65338387,-69.50591000
12.65594387,-69.50591000
12.65850387,-69.50591000
12.66106387,-69.50591000
12.66362387,-69.50591000
12.66618387,-69.50591000
12.66874387,-69.50591000
12.67130387,-69.50591000
12.67386387,-69.50591000
12.67642387,-69.50591000
12.67898387,-69.50591000
12.68154387,-69.50591000
12.68410387,-69.50591000
12.68666387,-69.50591000
12.68922387,-69.50591000
12.69178387,-69.50591000
12.69434387,-69.50591000
12.69690387,-69.50591000
12.69946387,-69.50591000
12.70202387,-69.50591000
12.70458387,-69.50591000
12.70714387,-69.50591000
12.70970387,-69.50591000
12.71226387,-69.50591000
12.71482387,-69.50591000
12.71738387,-69.50591000
12.71994387,-69.50591000
12.72250387,-69.50591000
12.72506387,-69.50591000
12.72762387,-69.50591000
12.73018387,-69.50591000
12.73274387,-69.50591000
12.73530387,-69.50591000
12.73786387,-69.50591000
12.74042387,-69.50591000
12.74298387,-69.50591000
12.74554387,-69.50591000
12.74810387,-69.50591000
12.75066387,-69.50591000
12.75322387,-69.50591000
12.75578387,-69.50591000
12.75834387,-69.50591000
12.76090387,-69.50591000
12.76346387,-69.50591000
12.76602387,-69.50591000
12.76858387,-69.50591000
12.77114387,-69.50591000
12.77370387,-69.50591000
12.77626387,-69.50591000
12.77882387,-69.50591000
12.78138387,-69.50591000
12.78394387,-69.50591000
12.78650387,-69.50591000
12.78906387,-69.50591000
12.79162387,-69.50591000
12.79418387,-69.50591000
12.79674387,-69.50591000
12.79930387,-69.50591000
12.80186387,-69.50591000
12.80442387,-69.50591000
12.80698387,-69.50591000
12.80954387,-69.50591000
12.81210387,-69.50591000
12.81466387,-69.50591000
12.81722387,-69.50591000
12.81978387,-69.50591000
12.82234387,-69.50591000
12.82490387,-69.50591000
12.82746387,-69.50591000
12.83002387,-69.50591000
12.83258387,-69.50591000
12.83514387,-69.50591000
12.83770387,-69.50591000
12.84026387,-69.50591000
12.84282387,-69.50591000
12.84538387,-69.50591000
12.84794387,-69.50591000
12.85050387,-69.50591000
12.85306387,-69.50591000
12.85562387,-69.50591000
12.85818387,-69.50591000
12.86074387,-69.50591000
12.86330387,-69.50591000
12.86586387,-69.50591000
12.86842387,-69.50591000
12.87098387,-69.50591000
12.87354387,-69.50591000
12.87610387,-69.50591000
12.87866387,-69.50591000
12.88122387,-69.50591000
12.88378387,-69.50591000
12.88634387,-69.50591000
12.88890387,-69.50591000
12.89146387,-69.50591000
12.89402387,-69.50591000
12.89658387,-69.50591000
12.89914387,-69.50591000
12.90170387,-69.50591000
12.90426387,-69.50591000
12.90682387,-69.50591000
12.90938387,-69.50591000
12.91194387,-69.50591000
12.91450387,-69.50591000
12.91706387,-69.50591000
12.91962387,-69.50591000
12.92218387,-69.50591000
12.92474387,-69.50591000
12.92730387,-69.50591000
12.92986387,-69.50591000
12.93242387,-69.50591000
12.93498387,-69.50591000
12.93754387,-69.50591000
12.94010387,-69.50591000
12.94266387,-69.50591000
12.94522387,-69.50591000
12.94778387,-69.50591000
12.95034387,-69.50591000
12.95290387,-69.50591000
12.95546387,-69.50591000
12.95802387,-69.50591000
12.96058387,-69.50591000
12.96314387,-69.50591000
12.96570387,-69.50591000
12.96826387,-69.50591000
12.97082387,-69.50591000
12.97338387,-69.50591000
12.97594387,-69.50591000
12.97850387,-69.50591000
12.98106387,-69.50591000
12.98362387,-69.50591000
12.98618387,-69.50591000
12.98874387,-69.50591000
12.99130387,-73.99212000
12.99386387,-69.50591000
12.99642387,-69.50591000
12.99898387,-69.50591000
13.00154387,-69.50591000
13.00410387,-69.50591000
13.00666387,-69.50591000
13.00922387,-69.50591000
13.01178387,-69.50591000
13.01434387,-69.50591000
13.01690387,-69.50591000
13.01946387,-69.50591000
13.02202387,-69.50591000
13.02458387,-69.50591000
13.02714387,-69.50591000
13.02970387,-69.50591000
13.03226387,-69.50591000
13.03482387,-69.50591000
13.03738387,-69.50591000
13.03994387,-73.99212000
13.04250387,-69.50591000
13.04506387,-69.50591000
13.04762387,-69.50591000
13.05018387,-69.50591000
13.05274387,-69.50591000
13.05530387,-69.50591000
13.05786387,-69.50591000
13.06042387,-69.50591000
13.06298387,-69.50591000
13.06554387,-69.50591000
13.06810387,-69.50591000
13.07066387,-69.50591000
13.07322387,-69.50591000
13.07578387,-69.50591000
13.07834387,-69.50591000
13.08090387,-69.50591000
13.08346387,-69.50591000
13.08602387,-69.50591000
13.08858387,-69.50591000
13.09114387,-69.50591000
13.09370387,-69.50591000
13.09626387,-73.99212000
13.09882386,-69.50591000
13.10138386,-69.50591000
13.10394386,-69.50591000
13.10650386,-69.50591000
13.10906386,-69.50591000
13.11162386,-69.50591000
13.11418386,-69.50591000
13.11674386,-69.50591000
13.11930386,-69.50591000
13.12186386,-69.50591000
13.12442386,-69.50591000
13.12698386,-69.50591000
13.12954386,-69.50591000
13.13210386,-69.50591000
13.13466386,-69.50591000
13.13722386,-69.50591000
13.13978386,-69.50591000
13.14234386,-69.50591000
13.14490386,-69.50591000
13.14746386,-69.50591000
13.15002386,-69.50591000
13.15258386,-69.50591000
13.15514386,-69.50591000
13.15770386,-69.50591000
13.16026386,-69.50591000
13.16282386,-69.50591000
13.16538386,-69.50591000
13.16794386,-69.50591000
13.17050386,-69.50591000
13.17306386,-69.50591000
13.17562386,-69.50591000
13.17818386,-69.50591000
13.18074386,-69.50591000
13.18330386,-69.50591000
13.18586386,-69.50591000
13.18842386,-69.50591000
13.19098386,-69.50591000
13.19354386,-69.50591000
13.19610386,-69.50591000
13.19866386,-69.50591000
13.20122386,-69.50591000
13.20378386,-69.50591000
13.20634386,-69.50591000
13.20890386,-69.50591000
13.21146386,-69.50591000
13.21402386,-69.50591000
13.21658386,-69.50591000
13.21914386,-69.50591000
13.22170386,-69.50591000
13.22426386,-69.50591000
13.22682386,-69.50591000
13.22938386,-69.50591000
13.23194386,-69.50591000
13.23450386,-69.50591000
13.23706386,-69.50591000
13.23962386,-69.50591000
13.24218386,-69.50591000
13.24474386,-69.50591000
13.24730386,-69.50591000
13.24986386,-69.50591000
13.25242386,-69.50591000
13.25498386,-69.50591000
13.25754386,-69.50591000
13.26010386,-69.50591000
13.26266386,-69.50591000
13.26522386,-69.50591000
13.26778386,-69.50591000
13.27034386,-69.50591000
13.27290386,-69.50591000
13.27546386,-69.50591000
13.27802386,-69.50591000
13.28058386,-69.50591000
13.28314386,-69.50591000
13.28570386,-69.50591000
13.28826386,-69.50591000
13.29082386,-69.50591000
13.29338386,-69.50591000
13.29594386,-69.50591000
13.29850386,-69.50591000
13.30106386,-69.50591000
13.30362386,-69.50591000
13.30618386,-69.50591000
13.30874386,-69.50591000
13.31130386,-69.50591000
13.31386386,-69.50591000
13.31642386,-69.50591000
13.31898386,-69.50591000
13.32154386,-69.50591000
13.32410386,-69.50591000
13.32666386,-69.50591000
13.32922386,-69.50591000
13.33178386,-69.50591000
13.33434386,-69.50591000
13.33690386,-69.50591000
13.33946386,-69.50591000
13.34202386,-69.50591000
13.34458386,-69.50591000
13.34714386,-69.50591000
13.34970386,-69.50591000
13.35226386,-69.50591000
13.35482386,-69.50591000
13.35738386,-69.50591000
13.35994386,-69.50591000
13.36250386,-69.50591000
13.36506386,-69.50591000
13.36762386,-69.50591000
13.37018386,-69.50591000
13.37274386,-69.50591000
13.37530386,-69.50591000
13.37786386,-69.50591000
13.38042386,-69.50591000
13.38298386,-69.50591000
13.38554386,-69.50591000
13.38810386,-69.50591000
13.39066386,-69.50591000
13.39322386,-69.50591000
13.39578386,-69.50591000
13.39834386,-69.50591000
13.40090386,-69.50591000
13.40346386,-69.50591000
13.40602386,-69.50591000
13.40858386,-69.50591000
13.41114386,-69.50591000
13.41370386,-69.50591000
13.41626386,-69.50591000
13.41882386,-69.50591000
13.42138386,-69.50591000
13.42394386,-69.50591000
13.42650386,-69.50591000
13.42906386,-69.50591000
13.43162386,-69.50591000
13.43418386,-69.50591000
13.43674386,-69.50591000
13.43930386,-69.50591000
13.44186386,-69.50591000
13.44442386,-69.50591000
13.44698386,-69.50591000
13.44954386,-69.50591000
13.45210386,-69.50591000
13.45466386,-69.50591000
13.45722386,-69.50591000
13.45978386,-69.50591000
13.46234386,-69.50591000
13.46490386,-69.50591000
13.46746386,-69.50591000
13.47002386,-69.50591000
13.47258386,-69.50591000
13.47514386,-69.50591000
13.47770386,-69.50591000
13.48026386,-69.50591000
13.48282386,-69.50591000
13.48538386,-69.50591000
13.48794386,-69.50591000
13.49050386,-69.50591000
13.49306386,-69.50591000
13.49562386,-69.50591000
13.49818386,-69.50591000
13.50074386,-69.50591000
13.50330386,-69.50591000
13.50586386,-69.50591000
13.50842386,-69.50591000
13.51098386,-69.50591000
13.51354386,-69.50591000
13.51610386,-69.50591000
13.51866386,-69.50591000
13.52122386,-69.50591000
13.52378386,-69.50591000
13.52634386,-69.50591000
13.52890386,-69.50591000
13.53146386,-69.50591000
13.53402386,-69.50591000
13.53658386,-69.50591000
13.53914386,-69.50591000
13.54170386,-69.50591000
13.54426386,-69.50591000
13.54682386,-69.50591000
13.54938386,-69.50591000
13.55194386,-69.50591000
13.55450386,-69.50591000
13.55706386,-69.50591000
13.55962386,-69.50591000
13.56218386,-69.50591000
13.56474386,-69.50591000
13.56730386,-69.50591000
13.56986386,-69.50591000
13.57242386,-69.50591000
13.57498386,-69.50591000
13.57754386,-69.50591000
13.58010386,-69.50591000
13.58266386,-69.50591000
13.58522386,-69.50591000
13.58778386,-69.50591000
13.59034386,-69.50591000
13.59290386,-69.50591000
13.59546386,-69.50591000
13.59802386,-69.50591000
13.60058386,-69.50591000
13.60314386,-69.50591000
13.60570386,-69.50591000
13.60826386,-69.50591000
13.61082386,-69.50591000
13.61338386,-69.50591000
13.61594386,-69.50591000
13.61850386,-69.50591000
13.62106386,-69.50591000
13.62362386,-69.50591000
13.62618386,-69.50591000
13.62874386,-69.50591000
13.63130386,-69.50591000
13.63386386,-69.50591000
13.63642386,-69.50591000
13.63898386,-69.50591000
13.64154386,-69.50591000
13.64410386,-69.50591000
13.64666386,-69.50591000
13.64922386,-69.50591000
13.65178386,-69.50591000
13.65434386,-69.50591000
13.65690386,-69.50591000
13.65946386,-69.50591000
13.66202386,-69.50591000
13.66458386,-69.50591000
13.66714386,-69.50591000
13.66970386,-69.50591000
13.67226386,-69.50591000
13.67482386,-69.50591000
13.67738386,-69.50591000
13.67994386,-69.50591000
13.68250386,-69.50591000
13.68506386,-69.50591000
13.68762386,-69.50591000
13.69018386,-69.50591000
13.69274386,-69.50591000
13.69530386,-69.50591000
13.69786386,-69.50591000
13.70042386,-69.50591000
13.70298386,-69.50591000
13.70554386,-69.50591000
13.70810386,-69.50591000
13.71066386,-69.50591000
13.71322386,-69.50591000
13.71578386,-69.50591000
13.71834386,-69.50591000
13.72090386,-69.50591000
13.72346386,-69.50591000
13.72602386,-69.50591000
13.72858386,-69.50591000
13.73114386,-69.50591000
13.73370386,-69.50591000
13.73626386,-69.50591000
13.73882386,-69.50591000
13.74138386,-69.50591000
13.74394386,-69.50591000
13.74650386,-69.50591000
13.74906386,-69.50591000
13.75162386,-69.50591000
13.75418386,-69.50591000
13.75674386,-69.50591000
13.75930386,-69.50591000
13.76186386,-69.50591000
13.76442386,-69.50591000
13.76698386,-69.50591000
13.76954386,-69.50591000
13.77210386,-69.50591000
13.77466386,-69.50591000
13.77722386,-69.50591000
13.77978386,-69.50591000
13.78234386,-69.50591000
13.78490386,-69.50591000
13.78746386,-69.50591000
13.79002386,-69.50591000
13.79258386,-69.50591000
13.79514386,-69.50591000
13.79770386,-69.50591000
13.80026386,-69.50591000
13.80282386,-69.50591000
13.80538386,-69.50591000
13.80794386,-69.50591000
13.81050386,-69.50591000
13.81306386,-69.50591000
13.81562386,-69.50591000
13.81818386,-69.50591000
13.82074386,-69.50591000
13.82330386,-69.50591000
13.82586386,-69.50591000
13.82842386,-69.50591000
13.83098386,-69.50591000
13.83354386,-69.50591000
13.83610386,-69.50591000
13.83866386,-69.50591000
13.84122386,-69.50591000
13.84378386,-69.50591000
13.84634386,-69.50591000
13.84890386,-69.50591000
13.85146386,-69.50591000
13.85402386,-69.50591000
13.85658386,-69.50591000
13.85914386,-69.50591000
13.86170386,-69.50591000
13.86426386,-69.50591000
13.86682386,-69.50591000
13.86938386,-69.50591000
13.87194386,-69.50591000
13.87450386,-69.50591000
13.87706386,-69.50591000
13.87962386,-69.50591000
13.88218386,-69.50591000
13.88474386,-69.50591000
13.88730386,-69.50591000
13.88986386,-69.50591000
13.89242386,-69.50591000
13.89498386,-69.50591000
13.89754386,-69.50591000
13.90010386,-69.50591000
13.90266386,-69.50591000
13.90522386,-69.50591000
13.90778386,-69.50591000
13.91034386,-69.50591000
13.91290386,-69.50591000
13.91546386,-69.50591000
13.91802386,-69.50591000
13.92058386,-69.50591000
13.92314386,-69.50591000
13.92570386,-69.50591000
13.92826386,-69.50591000
13.93082386,-69.50591000
13.93338386,-69.50591000
13.93594386,-69.50591000
13.93850386,-69.50591000
13.94106386,-69.50591000
13.94362386,-69.50591000
13.94618386,-69.50591000
13.94874386,-69.50591000
13.95130386,-69.50591000
13.95386386,-69.50591000
13.95642386,-69.50591000
13.95898386,-69.50591000
13.96154386,-69.50591000
13.96410386,-69.50591000
13.96666386,-69.50591000
13.96922386,-69.50591000
13.97178386,-69.50591000
13.97434386,-69.50591000
13.97690386,-69.50591000
13.97946386,-69.50591000
13.98202386,-69.50591000
13.98458386,-73.99212000
13.98714386,-69.50591000
13.98970386,-69.50591000
13.99226386,-69.50591000
13.99482386,-69.50591000
13.99738386,-69.50591000
13.99994386,-69.50591000
14.00250386,-69.50591000
14.00506386,-69.50591000
14.00762386,-69.50591000
14.01018386,-69.50591000
14.01274386,-69.50591000
14.01530386,-69.50591000
14.01786386,-69.50591000
14.02042386,-73.99212000
14.02298386,-69.50591000
14.02554386,-69.50591000
14.02810386,-69.50591000
14.03066386,-69.50591000
14.03322386,-69.50591000
14.03578386,-69.50591000
14.03834386,-69.50591000
14.04090386,-69.50591000
14.04346386,-69.50591000
14.04602386,-73.99212000
14.04858386,-69.50591000
14.05114386,-69.50591000
14.05370386,-69.50591000
14.05626386,-69.50591000
14.05882386,-69.50591000
14.06138386,-69.50591000
14.06394386,-69.50591000
14.06650386,-69.50591000
14.06906386,-73.99212000
14.07162386,-69.50591000
14.07418386,-69.50591000
14.07674386,-69.50591000
14.07930386,-69.50591000
14.08186386,-69.50591000
14.08442386,-69.50591000
14.08698386,-69.50591000
14.08954386,-69.50591000
14.09210386,-69.50591000
14.09466386,-69.50591000
14.09722386,-69.50591000
14.09978386,-69.50591000
14.10234386,-69.50591000
14.10490386,-69.50591000
14.10746386,-69.50591000
14.11002386,-69.50591000
14.11258386,-69.50591000
14.11514386,-69.50591000
14.11770386,-69.50591000
14.12026386,-69.50591000
14.12282386,-69.50591000
14.12538386,-69.50591000
14.12794386,-69.50591000
14.13050386,-69.50591000
14.13306386,-69.50591000
14.13562386,-69.50591000
14.13818386,-69.50591000
14.14074386,-69.50591000
14.14330386,-69.50591000
14.14586386,-69.50591000
14.14842386,-69.50591000
14.15098386,-69.50591000
14.15354386,-69.50591000
14.15610386,-69.50591000
14.15866386,-69.50591000
14.16122386,-69.50591000
14.16378386,-69.50591000
14.16634386,-69.50591000
14.16890386,-69.50591000
14.17146386,-69.50591000
14.17402386,-69.50591000
14.17658386,-69.50591000
14.17914386,-69.50591000
14.18170386,-69.50591000
14.18426386,-69.50591000
14.18682386,-69.50591000
14.18938386,-69.50591000
14.19194386,-69.50591000
14.19450386,-69.50591000
14.19706386,-69.50591000
14.19962386,-69.50591000
14.20218386,-69.50591000
14.20474386,-69.50591000
14.20730386,-69.50591000
14.20986386,-69.50591000
14.21242386,-69.50591000
14.21498386,-69.50591000
14.21754386,-69.50591000
14.22010386,-69.50591000
14.22266386,-69.50591000
14.22522386,-69.50591000
14.22778386,-69.50591000
14.23034386,-69.50591000
14.23290386,-69.50591000
14.23546386,-69.50591000
14.23802386,-69.50591000
14.24058386,-69.50591000
14.24314386,-69.50591000
14.24570386,-69.50591000
14.24826386,-69.50591000
14.25082386,-69.50591000
14.25338386,-69.50591000
14.25594386,-69.50591000
14.25850386,-69.50591000
14.26106386,-69.50591000
14.26362386,-69.50591000
14.26618386,-69.50591000
14.26874386,-69.50591000
14.27130386,-69.50591000
14.27386386,-69.50591000
14.27642386,-69.50591000
14.27898386,-69.50591000
14.28154386,-69.50591000
14.28410386,-69.50591000
14.28666386,-69.50591000
14.28922386,-69.50591000
14.29178386,-69.50591000
14.29434386,-69.50591000
14.29690386,-69.50591000
14.29946386,-69.50591000
14.30202386,-69.50591000
14.30458386,-69.50591000
14.30714386,-69.50591000
14.30970386,-69.50591000
14.31226386,-69.50591000
14.31482386,-69.50591000
14.31738386,-69.50591000
14.31994386,-69.50591000
14.32250386,-69.50591000
14.32506386,-69.50591000
14.32762386,-69.50591000
14.33018386,-69.50591000
14.33274386,-69.50591000
14.33530386,-69.50591000
14.33786386,-69.50591000
14.34042386,-69.50591000
14.34298386,-69.50591000
14.34554386,-69.50591000
14.34810386,-69.50591000
14.35066386,-69.50591000
14.35322386,-69.50591000
14.35578386,-69.50591000
14.35834386,-69.50591000
14.36090386,-69.50591000
14.36346386,-69.50591000
14.36602386,-69.50591000
14.36858386,-69.50591000
14.37114386,-69.50591000
14.37370386,-69.50591000
14.37626386,-69.50591000
14.37882386,-69.50591000
14.38138386,-69.50591000
14.38394386,-69.50591000
14.38650386,-69.50591000
14.38906386,-69.50591000
14.39162386,-69.50591000
14.39418386,-69.50591000
14.39674386,-69.50591000
14.39930386,-69.50591000
14.40186386,-69.50591000
14.40442386,-69.50591000
14.40698386,-69.50591000
14.40954386,-69.50591000
14.41210386,-69.50591000
14.41466386,-69.50591000
14.41722386,-69.50591000
14.41978386,-69.50591000
14.42234386,-69.50591000
14.42490386,-69.50591000
14.42746386,-69.50591000
14.43002386,-69.50591000
14.43258386,-69.50591000
14.43514386,-69.50591000
14.43770386,-69.50591000
14.44026386,-69.50591000
14.44282386,-69.50591000
14.44538386,-69.50591000
14.44794386,-69.50591000
14.45050386,-69.50591000
14.45306386,-69.50591000
14.45562386,-69.50591000
14.45818386,-69.50591000
14.46074386,-69.50591000
14.46330386,-69.50591000
14.46586386,-69.50591000
14.46842386,-69.50591000
14.47098386,-69.50591000
14.47354386,-69.50591000
14.47610386,-69.50591000
14.47866386,-69.50591000
14.48122386,-69.50591000
14.48378386,-69.50591000
14.48634386,-69.50591000
14.48890386,-69.50591000
14.49146386,-69.50591000
14.49402386,-69.50591000
14.49658386,-69.50591000
14.49914386,-69.50591000
14.50170386,-69.50591000
14.50426386,-69.50591000
14.50682386,-69.50591000
14.50938386,-69.50591000
14.51194386,-69.50591000
14.51450386,-69.50591000
14.51706386,-69.50591000
14.51962386,-69.50591000
14.52218386,-69.50591000
14.52474386,-69.50591000
14.52730386,-69.50591000
14.52986386,-69.50591000
14.53242386,-69.50591000
14.53498386,-69.50591000
14.53754386,-69.50591000
14.54010386,-69.50591000
14.54266386,-69.50591000
14.54522386,-69.50591000
14.54778386,-69.50591000
14.55034386,-69.50591000
14.55290386,-69.50591000
14.55546386,-69.50591000
14.55802386,-69.50591000
14.56058386,-69.50591000
14.56314386,-69.50591000
14.56570386,-69.50591000
14.56826386,-69.50591000
14.57082386,-69.50591000
14.57338386,-69.50591000
14.57594386,-69.50591000
14.57850386,-69.50591000
14.58106386,-69.50591000
14.58362386,-69.50591000
14.58618386,-69.50591000
14.58874386,-69.50591000
14.59130386,-69.50591000
14.59386386,-69.50591000
14.59642386,-69.50591000
14.59898386,-69.50591000
14.60154386,-69.50591000
14.60410386,-69.50591000
14.60666386,-69.50591000
14.60922386,-69.50591000
14.61178386,-69.50591000
14.61434386,-69.50591000
14.61690386,-69.50591000
14.61946386,-69.50591000
14.62202386,-69.50591000
14.62458386,-69.50591000
14.62714386,-69.50591000
14.62970386,-69.50591000
14.63226386,-69.50591000
14.63482386,-69.50591000
14.63738386,-69.50591000
14.63994386,-69.50591000
14.64250386,-69.50591000
14.64506386,-69.50591000
14.64762386,-69.50591000
14.65018386,-69.50591000
14.65274386,-69.50591000
14.65530386,-69.50591000
14.65786386,-69.50591000
14.66042386,-69.50591000
14.66298386,-69.50591000
14.66554386,-69.50591000
14.66810386,-69.50591000
14.67066386,-69.50591000
14.67322386,-69.50591000
14.67578386,-69.50591000
14.67834386,-69.50591000
14.68090386,-69.50591000
14.68346386,-69.50591000
14.68602386,-69.50591000
14.68858386,-69.50591000
14.69114386,-69.50591000
14.69370386,-69.50591000
14.69626386,-69.50591000
14.69882386,-69.50591000
14.70138386,-69.50591000
14.70394386,-69.50591000
14.70650386,-69.50591000
14.70906386,-69.50591000
14.71162386,-69.50591000
14.71418386,-69.50591000
14.71674386,-69.50591000
14.71930386,-69.50591000
14.72186386,-69.50591000
14.72442386,-69.50591000
14.72698386,-69.50591000
14.72954386,-69.50591000
14.73210386,-69.50591000
14.73466386,-69.50591000
14.73722386,-69.50591000
14.73978386,-69.50591000
14.74234386,-69.50591000
14.74490385,-69.50591000
14.74746385,-69.50591000
14.75002385,-69.50591000
14.75258385,-69.50591000
14.75514385,-69.50591000
14.75770385,-69.50591000
14.76026385,-69.50591000
14.76282385,-69.50591000
14.76538385,-69.50591000
14.76794385,-69.50591000
14.77050385,-69.50591000
14.77306385,-69.50591000
14.77562385,-69.50591000
14.77818385,-69.50591000
14.78074385,-69.50591000
14.78330385,-69.50591000
14.78586385,-69.50591000
14.78842385,-69.50591000
14.79098385,-69.50591000
14.79354385,-69.50591000
14.79610385,-69.50591000
14.79866385,-69.50591000
14.80122385,-69.50591000
14.80378385,-69.50591000
14.80634385,-69.50591000
14.80890385,-69.50591000
14.81146385,-69.50591000
14.81402385,-69.50591000
14.81658385,-69.50591000
14.81914385,-69.50591000
14.82170385,-69.50591000
14.82426385,-69.50591000
14.82682385,-69.50591000
14.82938385,-69.50591000
14.83194385,-69.50591000
14.83450385,-69.50591000
14.83706385,-69.50591000
14.83962385,-69.50591000
14.84218385,-69.50591000
14.84474385,-69.50591000
14.84730385,-69.50591000
14.84986385,-73.99212000
14.85242385,-69.50591000
14.85498385,-69.50591000
14.85754385,-73.99212000
14.86010385,-69.50591000
14.86266385,-69.50591000
14.86522385,-69.50591000
14.86778385,-69.50591000
14.87034385,-69.50591000
14.87290385,-69.50591000
14.87546385,-69.50591000
14.87802385,-69.50591000
14.88058385,-69.50591000
14.88314385,-69.50591000
14.88570385,-69.50591000
14.88826385,-73.99212000
14.89082385,-69.50591000
14.89338385,-69.50591000
14.89594385,-69.50591000
14.89850385,-69.50591000
14.90106385,-73.99212000
14.90362385,-73.99212000
14.90618385,-69.50591000
14.90874385,-69.50591000
14.91130385,-69.50591000
14.91386385,-73.99212000
14.91642385,-73.99212000
14.91898385,-69.50591000
14.92154385,-73.99212000
14.92410385,-73.99212000
14.92666385,-69.50591000
14.92922385,-69.50591000
14.93178385,-69.50591000
14.93434385,-69.50591000
14.93690385,-69.50591000
14.93946385,-69.50591000
14.94202385,-69.50591000
14.94458385,-69.50591000
14.94714385,-69.50591000
14.94970385,-73.99212000
14.95226385,-69.50591000
14.95482385,-69.50591000
14.95738385,-69.50591000
14.95994385,-69.50591000
14.96250385,-73.99212000
14.96506385,-69.50591000
14.96762385,-69.50591000
14.97018385,-73.99212000
14.97274385,-69.50591000
14.97530385,-69.50591000
14.97786385,-69.50591000
14.98042385,-69.50591000
14.98298385,-69.50591000
14.98554385,-69.50591000
14.98810385,-69.50591000
14.99066385,-69.50591000
14.99322385,-69.50591000
14.99578385,-69.50591000
14.99834385,-69.50591000
15.00090385,-69.50591000
15.00346385,-69.50591000
15.00602385,-69.50591000
15.00858385,-69.50591000
15.01114385,-69.50591000
15.01370385,-69.50591000
15.01626385,-69.50591000
15.01882385,-69.50591000
15.02138385,-69.50591000
15.02394385,-69.50591000
15.02650385,-69.50591000
15.02906385,-69.50591000
15.03162385,-69.50591000
15.03418385,-69.50591000
15.03674385,-69.50591000
15.03930385,-69.50591000
15.04186385,-69.50591000
15.04442385,-69.50591000
15.04698385,-69.50591000
15.04954385,-69.50591000
15.05210385,-69.50591000
15.05466385,-69.50591000
15.05722385,-69.50591000
15.05978385,-69.50591000
15.06234385,-69.50591000
15.06490385,-69.50591000
15.06746385,-69.50591000
15.07002385,-69.50591000
15.07258385,-69.50591000
15.07514385,-69.50591000
15.07770385,-69.50591000
15.08026385,-73.99212000
15.08282385,-69.50591000
15.08538385,-69.50591000
15.08794385,-69.50591000
15.09050385,-69.50591000
15.09306385,-73.99212000
15.09562385,-69.50591000
15.09818385,-69.50591000
15.10074385,-69.50591000
15.10330385,-69.50591000
15.10586385,-69.50591000
15.10842385,-69.50591000
15.11098385,-69.50591000
15.11354385,-69.50591000
15.11610385,-69.50591000
15.11866385,-69.50591000
15.12122385,-69.50591000
15.12378385,-73.99212000
15.12634385,-69.50591000
15.12890385,-69.50591000
15.13146385,-69.50591000
15.13402385,-69.50591000
15.13658385,-69.50591000
15.13914385,-69.50591000
15.14170385,-69.50591000
15.14426385,-69.50591000
15.14682385,-69.50591000
15.14938385,-69.50591000
15.15194385,-69.50591000
15.15450385,-69.50591000
15.15706385,-69.50591000
15.15962385,-73.99212000
15.16218385,-69.50591000
15.16474385,-69.50591000
15.16730385,-69.50591000
15.16986385,-69.50591000
15.17242385,-73.99212000
15.17498385,-69.50591000
15.17754385,-73.99212000
15.18010385,-69.50591000
15.18266385,-69.50591000
15.18522385,-69.50591000
15.18778385,-73.99212000
15.19034385,-69.50591000
15.19290385,-69.50591000
15.19546385,-69.50591000
15.19802385,-69.50591000
15.20058385,-69.50591000
15.20314385,-73.99212000
15.20570385,-73.99212000
15.20826385,-69.50591000
15.21082385,-69.50591000
15.21338385,-73.99212000
15.21594385,-69.50591000
15.21850385,-69.50591000
15.22106385,-73.99212000
15.22362385,-73.99212000
15.22618385,-73.99212000
15.22874385,-69.50591000
15.23130385,-73.99212000
15.23386385,-73.99212000
15.23642385,-69.50591000
15.23898385,-73.99212000
15.24154385,-73.99212000
15.24410385,-73.99212000
15.24666385,-73.99212000
15.24922385,-73.99212000
15.25178385,-73.99212000
15.25434385,-73.99212000
15.25690385,-78.46308000
15.25946385,-73.99212000
15.26202385,-69.50591000
15.26458385,-73.99212000
15.26714385,-73.99212000
15.26970385,-73.99212000
15.27226385,-73.99212000
15.27482385,-73.99212000
15.27738385,-73.99212000
15.27994385,-73.99212000
15.28250385,-73.99212000
15.28506385,-73.99212000
15.28762385,-73.99212000
15.29018385,-73.99212000
15.29274385,-73.99212000
15.29530385,-78.46308000
15.29786385,-73.99212000
15.30042385,-73.99212000
15.30298385,-73.99212000
15.30554385,-73.99212000
15.30810385,-73.99212000
15.31066385,-73.99212000
15.31322385,-73.99212000
15.31578385,-78.46308000
15.31834385,-78.46308000
15.32090385,-78.46308000
15.32346385,-73.99212000
15.32602385,-73.99212000
15.32858385,-73.99212000
15.33114385,-73.99212000
15.33370385,-78.46308000
15.33626385,-73.99212000
15.33882385,-73.99212000
15.34138385,-73.99212000
15.34394385,-73.99212000
15.34650385,-73.99212000
15.34906385,-73.99212000
15.35162385,-78.46308000
15.35418385,-73.99212000
15.35674385,-78.46308000
15.35930385,-73.99212000
15.36186385,-73.99212000
15.36442385,-69.50591000
15.36698385,-73.99212000
15.36954385,-73.99212000
15.37210385,-73.99212000
15.37466385,-78.46308000
15.37722385,-73.99212000
15.37978385,-73.99212000
15.38234385,-73.99212000
15.38490385,-73.99212000
15.38746385,-73.99212000
15.39002385,-73.99212000
15.39258385,-73.99212000
15.39514385,-73.99212000
15.39770385,-73.99212000
15.40026385,-73.99212000
15.40282385,-73.99212000
15.40538385,-69.50591000
15.40794385,-73.99212000
15.41050385,-73.99212000
15.41306385,-73.99212000
15.41562385,-73.99212000
15.41818385,-73.99212000
15.42074385,-69.50591000
15.42330385,-73.99212000
15.42586385,-73.99212000
15.42842385,-73.99212000
15.43098385,-73.99212000
15.43354385,-73.99212000
15.43610385,-73.99212000
15.43866385,-69.50591000
15.44122385,-69.50591000
15.44378385,-73.99212000
15.44634385,-69.50591000
15.44890385,-73.99212000
15.45146385,-73.99212000
15.45402385,-69.50591000
15.45658385,-73.99212000
15.45914385,-69.50591000
15.46170385,-69.50591000
15.46426385,-69.50591000
15.46682385,-73.99212000
15.46938385,-69.50591000
15.47194385,-69.50591000
15.47450385,-69.50591000
15.47706385,-69.50591000
15.47962385,-69.50591000
15.48218385,-69.50591000
15.48474385,-69.50591000
15.48730385,-73.99212000
15.48986385,-69.50591000
15.49242385,-69.50591000
15.49498385,-69.50591000
15.49754385,-69.50591000
15.50010385,-69.50591000
15.50266385,-69.50591000
15.50522385,-69.50591000
15.50778385,-69.50591000
15.51034385,-69.50591000
15.51290385,-69.50591000
15.51546385,-69.50591000
15.51802385,-69.50591000
15.52058385,-69.50591000
15.52314385,-69.50591000
15.52570385,-69.50591000
15.52826385,-69.50591000
15.53082385,-69.50591000
15.53338385,-69.50591000
15.53594385,-69.50591000
15.53850385,-69.50591000
15.54106385,-69.50591000
15.54362385,-69.50591000
15.54618385,-69.50591000
15.54874385,-69.50591000
15.55130385,-69.50591000
15.55386385,-69.50591000
15.55642385,-69.50591000
15.55898385,-69.50591000
15.56154385,-69.50591000
15.56410385,-69.50591000
15.56666385,-69.50591000
15.56922385,-69.50591000
15.57178385,-69.50591000
15.57434385,-69.50591000
15.57690385,-69.50591000
15.57946385,-69.50591000
15.58202385,-69.50591000
15.58458385,-69.50591000
15.58714385,-69.50591000
15.58970385,-69.50591000
15.59226385,-69.50591000
15.59482385,-69.50591000
15.59738385,-69.50591000
15.59994385,-69.50591000
15.60250385,-69.50591000
15.60506385,-69.50591000
15.60762385,-69.50591000
15.61018385,-69.50591000
15.61274385,-69.50591000
15.61530385,-69.50591000
15.61786385,-69.50591000
15.62042385,-69.50591000
15.62298385,-69.50591000
15.62554385,-69.50591000
15.62810385,-69.50591000
15.63066385,-69.50591000
15.63322385,-69.50591000
15.63578385,-69.50591000
15.63834385,-69.50591000
15.64090385,-69.50591000
15.64346385,-73.99212000
15.64602385,-69.50591000
15.64858385,-69.50591000
15.65114385,-69.50591000
15.65370385,-69.50591000
15.65626385,-69.50591000
15.65882385,-69.50591000
15.66138385,-69.50591000
15.66394385,-73.99212000
15.66650385,-69.50591000
15.66906385,-73.99212000
15.67162385,-69.50591000
15.67418385,-73.99212000
15.67674385,-69.50591000
15.67930385,-69.50591000
15.68186385,-73.99212000
15.68442385,-69.50591000
15.68698385,-73.99212000
15.68954385,-69.50591000
15.69210385,-73.99212000
15.69466385,-69.50591000
15.69722385,-73.99212000
15.69978385,-73.99212000
15.70234385,-73.99212000
15.70490385,-69.50591000
15.70746385,-69.50591000
15.71002385,-69.50591000
15.71258385,-69.50591000
15.71514385,-69.50591000
15.71770385,-69.50591000
15.72026385,-73.99212000
15.72282385,-69.50591000
15.72538385,-69.50591000
15.72794385,-73.99212000
15.73050385,-73.99212000
15.73306385,-73.99212000
15.73562385,-73.99212000
15.73818385,-69.50591000
15.74074385,-73.99212000
15.74330385,-69.50591000
15.74586385,-73.99212000
15.74842385,-73.99212000
15.75098385,-69.50591000
15.75354385,-69.50591000
15.75610385,-73.99212000
15.75866385,-73.99212000
15.76122385,-69.50591000
15.76378385,-78.46308000
15.76634385,-73.99212000
15.76890385,-73.99212000
15.77146385,-73.99212000
15.77402385,-73.99212000
15.77658385,-73.99212000
15.77914385,-69.50591000
15.78170385,-73.99212000
15.78426385,-73.99212000
15.78682385,-73.99212000
15.78938385,-73.99212000
15.79194385,-73.99212000
15.79450385,-73.99212000
15.79706385,-73.99212000
15.79962385,-73.99212000
15.80218385,-73.99212000
15.80474385,-73.99212000
15.80730385,-73.99212000
15.80986385,-69.50591000
15.81242385,-69.50591000
15.81498385,-73.99212000
15.81754385,-73.99212000
15.82010385,-73.99212000
15.82266385,-73.99212000
15.82522385,-73.99212000
15.82778385,-73.99212000
15.83034385,-78.46308000
15.83290385,-73.99212000
15.83546385,-78.46308000
15.83802385,-73.99212000
15.84058385,-78.46308000
15.84314385,-73.99212000
15.84570385,-73.99212000
15.84826385,-73.99212000
15.85082385,-73.99212000
15.85338385,-73.99212000
15.85594385,-78.46308000
15.85850385,-73.99212000
15.86106385,-73.99212000
15.86362385,-73.99212000
15.86618385,-73.99212000
15.86874385,-73.99212000
15.87130385,-73.99212000
15.87386385,-78.46308000
15.87642385,-73.99212000
15.87898385,-73.99212000
15.88154385,-73.99212000
15.88410385,-73.99212000
15.88666385,-73.99212000
15.88922385,-78.46308000
15.89178385,-73.99212000
15.89434385,-73.99212000
15.89690385,-69.50591000
15.89946385,-73.99212000
15.90202385,-73.99212000
15.90458385,-73.99212000
15.90714385,-73.99212000
15.90970385,-73.99212000
15.91226385,-73.99212000
15.91482385,-73.99212000
15.91738385,-73.99212000
15.91994385,-73.99212000
15.92250385,-69.50591000
15.92506385,-73.99212000
15.92762385,-73.99212000
15.93018385,-73.99212000
15.93274385,-73.99212000
15.93530385,-73.99212000
15.93786385,-73.99212000
15.94042385,-73.99212000
15.94298385,-73.99212000
15.94554385,-73.99212000
15.94810385,-69.50591000
15.95066385,-73.99212000
15.95322385,-73.99212000
15.95578385,-73.99212000
15.95834385,-73.99212000
15.96090385,-73.99212000
15.96346385,-73.99212000
15.96602385,-73.99212000
15.96858385,-69.50591000
15.97114385,-73.99212000
15.97370385,-73.99212000
15.97626385,-73.99212000
15.97882385,-69.50591000
15.98138385,-69.50591000
15.98394385,-73.99212000
15.98650385,-73.99212000
15.98906385,-73.99212000
15.99162385,-73.99212000
15.99418385,-73.99212000
15.99674385,-73.99212000
15.99930385,-73.99212000
16.00186385,-69.50591000
16.00442385,-73.99212000
16.00698385,-73.99212000
16.00954385,-69.50591000
16.01210385,-73.99212000
16.01466385,-73.99212000
16.01722385,-73.99212000
16.01978385,-73.99212000
16.02234385,-73.99212000
16.02490385,-69.50591000
16.02746385,-73.99212000
16.03002385,-69.50591000
16.03258385,-73.99212000
16.03514385,-69.50591000
16.03770385,-73.99212000
16.04026385,-73.99212000
16.04282385,-73.99212000
16.04538385,-73.99212000
16.04794385,-73.99212000
16.05050385,-73.99212000
16.05306385,-69.50591000
16.05562385,-73.99212000
16.05818385,-73.99212000
16.06074385,-69.50591000
16.06330385,-69.50591000
16.06586385,-73.99212000
16.06842385,-73.99212000
16.07098385,-69.50591000
16.07354385,-69.50591000
16.07610385,-73.99212000
16.07866385,-73.99212000
16.08122385,-73.99212000
16.08378385,-69.50591000
16.08634385,-69.50591000
16.08890385,-73.99212000
16.09146385,-73.99212000
16.09402385,-69.50591000
16.09658385,-73.99212000
16.09914385,-73.99212000
16.10170385,-73.99212000
16.10426385,-69.50591000
16.10682385,-69.50591000
16.10938385,-69.50591000
16.11194385,-69.50591000
16.11450385,-69.50591000
16.11706385,-73.99212000
16.11962385,-73.99212000
16.12218385,-69.50591000
16.12474385,-69.50591000
16.12730385,-73.99212000
16.12986385,-73.99212000
16.13242385,-73.99212000
16.13498385,-73.99212000
16.13754385,-69.50591000
16.14010385,-69.50591000
16.14266385,-69.50591000
16.14522385,-69.50591000
16.14778385,-69.50591000
16.15034385,-69.50591000
16.15290385,-69.50591000
16.15546385,-69.50591000
16.15802385,-69.50591000
16.16058385,-69.50591000
16.16314385,-69.50591000
16.16570385,-69.50591000
16.16826385,-69.50591000
16.17082385,-69.50591000
16.17338385,-69.50591000
16.17594385,-69.50591000
16.17850385,-69.50591000
16.18106385,-69.50591000
16.18362385,-69.50591000
16.18618385,-73.99212000
16.18874385,-69.50591000
16.19130385,-69.50591000
16.19386385,-69.50591000
16.19642385,-69.50591000
16.19898385,-73.99212000
16.20154385,-69.50591000
16.20410385,-69.50591000
16.20666385,-69.50591000
16.20922385,-69.50591000
16.21178385,-69.50591000
16.21434385,-69.50591000
16.21690385,-69.50591000
16.21946385,-69.50591000
16.22202385,-69.50591000
16.22458385,-69.50591000
16.22714385,-69.50591000
16.22970385,-69.50591000
16.23226385,-69.50591000
16.23482385,-69.50591000
16.23738385,-69.50591000
16.23994385,-69.50591000
16.24250385,-69.50591000
16.24506385,-69.50591000
16.24762385,-69.50591000
16.25018385,-69.50591000
16.25274385,-69.50591000
16.25530385,-69.50591000
16.25786385,-69.50591000
16.26042385,-73.99212000
16.26298385,-69.50591000
16.26554385,-69.50591000
16.26810385,-69.50591000
16.27066385,-69.50591000
16.27322385,-69.50591000
16.27578385,-69.50591000
16.27834385,-69.50591000
16.28090385,-69.50591000
16.28346385,-69.50591000
16.28602385,-69.50591000
16.28858385,-69.50591000
16.29114385,-69.50591000
16.29370385,-69.50591000
16.29626385,-69.50591000
16.29882385,-69.50591000
16.30138385,-69.50591000
16.30394385,-69.50591000
16.30650385,-69.50591000
16.30906385,-69.50591000
16.31162385,-69.50591000
16.31418385,-69.50591000
16.31674385,-69.50591000
16.31930385,-69.50591000
16.32186385,-69.50591000
16.32442385,-69.50591000
16.32698385,-69.50591000
16.32954385,-69.50591000
16.33210385,-69.50591000
16.33466385,-69.50591000
16.33722385,-69.50591000
16.33978385,-69.50591000
16.34234385,-69.50591000
16.34490385,-69.50591000
16.34746385,-69.50591000
16.35002385,-69.50591000
16.35258385,-69.50591000
16.35514385,-69.50591000
16.35770385,-69.50591000
16.36026385,-69.50591000
16.36282385,-73.99212000
16.36538385,-69.50591000
16.36794385,-69.50591000
16.37050385,-69.50591000
16.37306385,-69.50591000
16.37562385,-69.50591000
16.37818385,-69.50591000
16.38074385,-69.50591000
16.38330385,-69.50591000
16.38586385,-69.50591000
16.38842385,-69.50591000
16.39098384,-73.99212000
16.39354384,-69.50591000
16.39610384,-69.50591000
16.39866384,-69.50591000
16.40122384,-69.50591000
16.40378384,-69.50591000
16.40634384,-69.50591000
16.40890384,-69.50591000
16.41146384,-69.50591000
16.41402384,-69.50591000
16.41658384,-69.50591000
16.41914384,-73.99212000
16.42170384,-69.50591000
16.42426384,-73.99212000
16.42682384,-69.50591000
16.42938384,-69.50591000
16.43194384,-69.50591000
16.43450384,-69.50591000
16.43706384,-69.50591000
16.43962384,-69.50591000
16.44218384,-73.99212000
16.44474384,-69.50591000
16.44730384,-73.99212000
16.44986384,-73.99212000
16.45242384,-69.50591000
16.45498384,-69.50591000
16.45754384,-69.50591000
16.46010384,-69.50591000
16.46266384,-69.50591000
16.46522384,-69.50591000
16.46778384,-73.99212000
16.47034384,-73.99212000
16.47290384,-73.99212000
16.47546384,-69.50591000
16.47802384,-69.50591000
16.48058384,-73.99212000
16.48314384,-69.50591000
16.48570384,-73.99212000
16.48826384,-73.99212000
16.49082384,-69.50591000
16.49338384,-69.50591000
16.49594384,-69.50591000
16.49850384,-69.50591000
16.50106384,-69.50591000
16.50362384,-69.50591000
16.50618384,-69.50591000
16.50874384,-69.50591000
16.51130384,-69.50591000
16.51386384,-69.50591000
16.51642384,-73.99212000
16.51898384,-69.50591000
16.52154384,-69.50591000
16.52410384,-73.99212000
16.52666384,-69.50591000
16.52922384,-69.50591000
16.53178384,-69.50591000
16.53434384,-73.99212000
16.53690384,-69.50591000
16.53946384,-73.99212000
16.54202384,-73.99212000
16.54458384,-73.99212000
16.54714384,-69.50591000
16.54970384,-69.50591000
16.55226384,-73.99212000
16.55482384,-73.99212000
16.55738384,-69.50591000
16.55994384,-73.99212000
16.56250384,-69.50591000
16.56506384,-73.99212000
16.56762384,-69.50591000
16.57018384,-73.99212000
16.57274384,-69.50591000
16.57530384,-69.50591000
16.57786384,-73.99212000
16.58042384,-69.50591000
16.58298384,-73.99212000
16.58554384,-73.99212000
16.58810384,-69.50591000
16.59066384,-73.99212000
16.59322384,-69.50591000
16.59578384,-69.50591000
16.59834384,-69.50591000
16.60090384,-69.50591000
16.60346384,-69.50591000
16.60602384,-69.50591000
16.60858384,-73.99212000
16.61114384,-69.50591000
16.61370384,-69.50591000
16.61626384,-69.50591000
16.61882384,-69.50591000
16.62138384,-73.99212000
16.62394384,-69.50591000
16.62650384,-69.50591000
16.62906384,-69.50591000
16.63162384,-69.50591000
16.63418384,-69.50591000
16.63674384,-73.99212000
16.63930384,-73.99212000
16.64186384,-73.99212000
16.64442384,-73.99212000
16.64698384,-73.99212000
16.64954384,-69.50591000
16.65210384,-73.99212000
16.65466384,-73.99212000
16.65722384,-73.99212000
16.65978384,-73.99212000
16.66234384,-69.50591000
16.66490384,-69.50591000
16.66746384,-73.99212000
16.67002384,-73.99212000
16.67258384,-73.99212000
16.67514384,-69.50591000
16.67770384,-69.50591000
16.68026384,-69.50591000
16.68282384,-69.50591000
16.68538384,-69.50591000
16.68794384,-69.50591000
16.69050384,-69.50591000
16.69306384,-69.50591000
16.69562384,-69.50591000
16.69818384,-73.99212000
16.70074384,-69.50591000
16.70330384,-69.50591000
16.70586384,-69.50591000
16.70842384,-73.99212000
16.71098384,-69.50591000
16.71354384,-73.99212000
16.71610384,-73.99212000
16.71866384,-73.99212000
16.72122384,-73.99212000
16.72378384,-69.50591000
16.72634384,-69.50591000
16.72890384,-69.50591000
16.73146384,-73.99212000
16.73402384,-69.50591000
16.73658384,-69.50591000
16.73914384,-69.50591000
16.74170384,-69.50591000
16.74426384,-69.50591000
16.74682384,-69.50591000
16.74938384,-73.99212000
16.75194384,-73.99212000
16.75450384,-73.99212000
16.75706384,-69.50591000
16.75962384,-69.50591000
16.76218384,-69.50591000
16.76474384,-73.99212000
16.76730384,-69.50591000
16.76986384,-69.50591000
16.77242384,-69.50591000
16.77498384,-69.50591000
16.77754384,-73.99212000
16.78010384,-73.99212000
16.78266384,-69.50591000
16.78522384,-69.50591000
16.78778384,-69.50591000
16.79034384,-69.50591000
16.79290384,-69.50591000
16.79546384,-73.99212000
16.79802384,-73.99212000
16.80058384,-69.50591000
16.80314384,-69.50591000
16.80570384,-73.99212000
16.80826384,-69.50591000
16.81082384,-69.50591000
16.81338384,-69.50591000
16.81594384,-69.50591000
16.81850384,-69.50591000
16.82106384,-69.50591000
16.82362384,-69.50591000
16.82618384,-69.50591000
16.82874384,-69.50591000
16.83130384,-69.50591000
16.83386384,-69.50591000
16.83642384,-69.50591000
16.83898384,-69.50591000
16.84154384,-69.50591000
16.84410384,-69.50591000
16.84666384,-69.50591000
16.84922384,-69.50591000
16.85178384,-69.50591000
16.85434384,-69.50591000
16.85690384,-69.50591000
16.85946384,-69.50591000
16.86202384,-69.50591000
16.86458384,-69.50591000
16.86714384,-69.50591000
16.86970384,-73.99212000
16.87226384,-69.50591000
16.87482384,-69.50591000
16.87738384,-69.50591000
16.87994384,-69.50591000
16.88250384,-69.50591000
16.88506384,-69.50591000
16.88762384,-69.50591000
16.89018384,-69.50591000
16.89274384,-69.50591000
16.89530384,-69.50591000
16.89786384,-69.50591000
16.90042384,-69.50591000
16.90298384,-69.50591000
16.90554384,-69.50591000
16.90810384,-69.50591000
16.91066384,-73.99212000
16.91322384,-69.50591000
16.91578384,-69.50591000
16.91834384,-69.50591000
16.92090384,-69.50591000
16.92346384,-69.50591000
16.92602384,-69.50591000
16.92858384,-69.50591000
16.93114384,-69.50591000
16.93370384,-69.50591000
16.93626384,-69.50591000
16.93882384,-69.50591000
16.94138384,-69.50591000
16.94394384,-69.50591000
16.94650384,-69.50591000
16.94906384,-69.50591000
16.95162384,-69.50591000
16.95418384,-69.50591000
16.95674384,-69.50591000
16.95930384,-69.50591000
16.96186384,-69.50591000
16.96442384,-69.50591000
16.96698384,-69.50591000
16.96954384,-69.50591000
16.97210384,-69.50591000
16.97466384,-69.50591000
16.97722384,-69.50591000
16.97978384,-69.50591000
16.98234384,-69.50591000
16.98490384,-69.50591000
16.98746384,-69.50591000
16.99002384,-69.50591000
16.99258384,-69.50591000
16.99514384,-69.50591000
16.99770384,-69.50591000
17.00026384,-69.50591000
17.00282384,-69.50591000
17.00538384,-69.50591000
17.00794384,-69.50591000
17.01050384,-69.50591000
17.01306384,-69.50591000
17.01562384,-69.50591000
17.01818384,-69.50591000
17.02074384,-69.50591000
17.02330384,-69.50591000
17.02586384,-73.99212000
17.02842384,-69.50591000
17.03098384,-69.50591000
17.03354384,-73.99212000
17.03610384,-73.99212000
17.03866384,-69.50591000
17.04122384,-69.50591000
17.04378384,-73.99212000
17.04634384,-69.50591000
17.04890384,-69.50591000
17.05146384,-69.50591000
17.05402384,-73.99212000
17.05658384,-69.50591000
17.05914384,-69.50591000
17.06170384,-69.50591000
17.06426384,-69.50591000
17.06682384,-69.50591000
17.06938384,-73.99212000
17.07194384,-69.50591000
17.07450384,-69.50591000
17.07706384,-69.50591000
17.07962384,-69.50591000
17.08218384,-69.50591000
17.08474384,-69.50591000
17.08730384,-69.50591000
17.08986384,-69.50591000
17.09242384,-69.50591000
17.09498384,-69.50591000
17.09754384,-69.50591000
17.10010384,-69.50591000
17.10266384,-69.50591000
17.10522384,-69.50591000
17.10778384,-69.50591000
17.11034384,-69.50591000
17.11290384,-69.50591000
17.11546384,-69.50591000
17.11802384,-69.50591000
17.12058384,-69.50591000
17.12314384,-69.50591000
17.12570384,-69.50591000
17.12826384,-69.50591000
17.13082384,-69.50591000
17.13338384,-69.50591000
17.13594384,-69.50591000
17.13850384,-69.50591000
17.14106384,-69.50591000
17.14362384,-69.50591000
17.14618384,-69.50591000
17.14874384,-69.50591000
17.15130384,-69.50591000
17.15386384,-69.50591000
17.15642384,-69.50591000
17.15898384,-69.50591000
17.16154384,-69.50591000
17.16410384,-69.50591000
17.16666384,-69.50591000
17.16922384,-69.50591000
17.17178384,-69.50591000
17.17434384,-69.50591000
17.17690384,-69.50591000
17.17946384,-73.99212000
17.18202384,-69.50591000
17.18458384,-69.50591000
17.18714384,-69.50591000
17.18970384,-69.50591000
17.19226384,-69.50591000
17.19482384,-69.50591000
17.19738384,-69.50591000
17.19994384,-69.50591000
17.20250384,-69.50591000
17.20506384,-69.50591000
17.20762384,-69.50591000
17.21018384,-69.50591000
17.21274384,-69.50591000
17.21530384,-69.50591000
17.21786384,-73.99212000
17.22042384,-69.50591000
17.22298384,-69.50591000
17.22554384,-73.99212000
17.22810384,-73.99212000
17.23066384,-69.50591000
17.23322384,-69.50591000
17.23578384,-69.50591000
17.23834384,-69.50591000
17.24090384,-69.50591000
17.24346384,-69.50591000
17.24602384,-69.50591000
17.24858384,-73.99212000
17.25114384,-73.99212000
17.25370384,-69.50591000
17.25626384,-73.99212000
17.25882384,-73.99212000
17.26138384,-69.50591000
17.26394384,-69.50591000
17.26650384,-73.99212000
17.26906384,-69.50591000
17.27162384,-69.50591000
17.27418384,-69.50591000
17.27674384,-69.50591000
17.27930384,-69.50591000
17.28186384,-69.50591000
17.28442384,-69.50591000
17.28698384,-69.50591000
17.28954384,-69.50591000
17.29210384,-69.50591000
17.29466384,-69.50591000
17.29722384,-69.50591000
17.29978384,-73.99212000
17.30234384,-73.99212000
17.30490384,-69.50591000
17.30746384,-69.50591000
17.31002384,-69.50591000
17.31258384,-69.50591000
17.31514384,-69.50591000
17.31770384,-69.50591000
17.32026384,-69.50591000
17.32282384,-69.50591000
17.32538384,-69.50591000
17.32794384,-69.50591000
17.33050384,-69.50591000
17.33306384,-69.50591000
17.33562384,-69.50591000
17.33818384,-69.50591000
17.34074384,-69.50591000
17.34330384,-69.50591000
17.34586384,-69.50591000
17.34842384,-69.50591000
17.35098384,-69.50591000
17.35354384,-69.50591000
17.35610384,-69.50591000
17.35866384,-69.50591000
17.36122384,-69.50591000
17.36378384,-69.50591000
17.36634384,-69.50591000
17.36890384,-69.50591000
17.37146384,-73.99212000
17.37402384,-69.50591000
17.37658384,-69.50591000
17.37914384,-69.50591000
17.38170384,-73.99212000
17.38426384,-69.50591000
17.38682384,-69.50591000
17.38938384,-69.50591000
17.39194384,-73.99212000
17.39450384,-69.50591000
17.39706384,-69.50591000
17.39962384,-69.50591000
17.40218384,-69.50591000
17.40474384,-69.50591000
17.40730384,-73.99212000
17.40986384,-69.50591000
17.41242384,-69.50591000
17.41498384,-69.50591000
17.41754384,-69.50591000
17.42010384,-69.50591000
17.42266384,-69.50591000
17.42522384,-69.50591000
17.42778384,-69.50591000
17.43034384,-69.50591000
17.43290384,-69.50591000
17.43546384,-73.99212000
17.43802384,-69.50591000
17.44058384,-69.50591000
17.44314384,-69.50591000
17.44570384,-73.99212000
17.44826384,-69.50591000
17.45082384,-69.50591000
17.45338384,-69.50591000
17.45594384,-69.50591000
17.45850384,-69.50591000
17.46106384,-69.50591000
17.46362384,-69.50591000
17.46618384,-69.50591000
17.46874384,-69.50591000
17.47130384,-69.50591000
17.47386384,-69.50591000
17.47642384,-73.99212000
17.47898384,-69.50591000
17.48154384,-69.50591000
17.48410384,-69.50591000
17.48666384,-73.99212000
17.48922384,-69.50591000
17.49178384,-69.50591000
17.49434384,-69.50591000
17.49690384,-69.50591000
17.49946384,-69.50591000
17.50202384,-69.50591000
17.50458384,-73.99212000
17.50714384,-73.99212000
17.50970384,-73.99212000
17.51226384,-73.99212000
17.51482384,-73.99212000
17.51738384,-69.50591000
17.51994384,-73.99212000
17.52250384,-69.50591000
17.52506384,-69.50591000
17.52762384,-69.50591000
17.53018384,-69.50591000
17.53274384,-69.50591000
17.53530384,-69.50591000
17.53786384,-73.99212000
17.54042384,-73.99212000
17.54298384,-69.50591000
17.54554384,-73.99212000
17.54810384,-69.50591000
17.55066384,-69.50591000
17.55322384,-69.50591000
17.55578384,-73.99212000
17.55834384,-69.50591000
17.56090384,-73.99212000
17.56346384,-73.99212000
17.56602384,-69.50591000
17.56858384,-69.50591000
17.57114384,-73.99212000
17.57370384,-69.50591000
17.57626384,-73.99212000
17.57882384,-73.99212000
17.58138384,-69.50591000
17.58394384,-69.50591000
17.58650384,-73.99212000
17.58906384,-69.50591000
17.59162384,-73.99212000
17.59418384,-69.50591000
17.59674384,-73.99212000
17.59930384,-69.50591000
17.60186384,-69.50591000
17.60442384,-69.50591000
17.60698384,-73.99212000
17.60954384,-73.99212000
17.61210384,-73.99212000
17.61466384,-73.99212000
17.61722384,-69.50591000
17.61978384,-69.50591000
17.62234384,-73.99212000
17.62490384,-73.99212000
17.62746384,-69.50591000
17.63002384,-69.50591000
17.63258384,-69.50591000
17.63514384,-73.99212000
17.63770384,-69.50591000
17.64026384,-69.50591000
17.64282384,-73.99212000
17.64538384,-73.99212000
17.64794384,-69.50591000
17.65050384,-69.50591000
17.65306384,-73.99212000
17.65562384,-73.99212000
17.65818384,-73.99212000
17.66074384,-73.99212000
17.66330384,-73.99212000
17.66586384,-73.99212000
17.66842384,-69.50591000
17.67098384,-73.99212000
17.67354384,-73.99212000
17.67610384,-69.50591000
17.67866384,-69.50591000
17.68122384,-73.99212000
17.68378384,-73.99212000
17.68634384,-69.50591000
17.68890384,-69.50591000
17.69146384,-69.50591000
17.69402384,-73.99212000
17.69658384,-69.50591000
17.69914384,-73.99212000
17.70170384,-73.99212000
17.70426384,-69.50591000
17.70682384,-73.99212000
17.70938384,-69.50591000
17.71194384,-69.50591000
17.71450384,-69.50591000
17.71706384,-73.99212000
17.71962384,-69.50591000
17.72218384,-69.50591000
17.72474384,-69.50591000
17.72730384,-69.50591000
17.72986384,-69.50591000
17.73242384,-69.50591000
17.73498384,-73.99212000
17.73754384,-69.50591000
17.74010384,-73.99212000
17.74266384,-73.99212000
17.74522384,-69.50591000
17.74778384,-69.50591000
17.75034384,-69.50591000
17.75290384,-69.50591000
17.75546384,-69.50591000
17.75802384,-73.99212000
17.76058384,-73.99212000
17.76314384,-69.50591000
17.76570384,-73.99212000
17.76826384,-73.99212000
17.77082384,-69.50591000
17.77338384,-69.50591000
17.77594384,-69.50591000
17.77850384,-69.50591000
17.78106384,-69.50591000
17.78362384,-69.50591000
17.78618384,-69.50591000
17.78874384,-69.50591000
17.79130384,-69.50591000
17.79386384,-69.50591000
17.79642384,-69.50591000
17.79898384,-69.50591000
17.80154384,-69.50591000
17.80410384,-69.50591000
17.80666384,-69.50591000
17.80922384,-69.50591000
17.81178384,-69.50591000
17.81434384,-73.99212000
17.81690384,-69.50591000
17.81946384,-69.50591000
17.82202384,-73.99212000
17.82458384,-69.50591000
17.82714384,-69.50591000
17.82970384,-69.50591000
17.83226384,-69.50591000
17.83482384,-73.99212000
17.83738384,-69.50591000
17.83994384,-73.99212000
17.84250384,-69.50591000
17.84506384,-69.50591000
17.84762384,-69.50591000
17.85018384,-73.99212000
17.85274384,-69.50591000
17.85530384,-69.50591000
17.85786384,-73.99212000
17.86042384,-69.50591000
17.86298384,-73.99212000
17.86554384,-69.50591000
17.86810384,-73.99212000
17.87066384,-69.50591000
17.87322384,-69.50591000
17.87578384,-73.99212000
17.87834384,-69.50591000
17.88090384,-69.50591000
17.88346384,-73.99212000
17.88602384,-69.50591000
17.88858384,-69.50591000
17.89114384,-69.50591000
17.89370384,-69.50591000
17.89626384,-69.50591000
17.89882384,-73.99212000
17.90138384,-69.50591000
17.90394384,-73.99212000
17.90650384,-73.99212000
17.90906384,-73.99212000
17.91162384,-69.50591000
17.91418384,-73.99212000
17.91674384,-69.50591000
17.91930384,-73.99212000
17.92186384,-69.50591000
17.92442384,-73.99212000
17.92698384,-73.99212000
17.92954384,-69.50591000
17.93210384,-73.99212000
17.93466384,-73.99212000
17.93722384,-69.50591000
17.93978384,-69.50591000
17.94234384,-69.50591000
17.94490384,-69.50591000
17.94746384,-73.99212000
17.95002384,-73.99212000
17.95258384,-69.50591000
17.95514384,-69.50591000
17.95770384,-73.99212000
17.96026384,-69.50591000
17.96282384,-73.99212000
17.96538384,-69.50591000
17.96794384,-69.50591000
17.97050384,-69.50591000
17.97306384,-69.50591000
17.97562384,-73.99212000
17.97818384,-73.99212000
17.98074384,-73.99212000
17.98330384,-73.99212000
17.98586384,-69.50591000
17.98842384,-69.50591000
17.99098384,-73.99212000
17.99354384,-69.50591000
17.99610384,-73.99212000
17.99866384,-73.99212000
18.00122384,-69.50591000
18.00378384,-69.50591000
18.00634384,-78.46308000
18.00890384,-69.50591000
18.01146384,-69.50591000
18.01402384,-73.99212000
18.01658384,-69.50591000
18.01914384,-69.50591000
18.02170384,-73.99212000
18.02426384,-69.50591000
18.02682384,-73.99212000
18.02938384,-73.99212000
18.03194384,-73.99212000
18.03450383,-69.50591000
18.03706383,-73.99212000
18.03962383,-73.99212000
18.04218383,-69.50591000
18.04474383,-69.50591000
18.04730383,-69.50591000
18.04986383,-69.50591000
18.05242383,-69.50591000
18.05498383,-69.50591000
18.05754383,-69.50591000
18.06010383,-73.99212000
18.06266383,-73.99212000
18.06522383,-69.50591000
18.06778383,-73.99212000
18.07034383,-73.99212000
18.07290383,-69.50591000
18.07546383,-69.50591000
18.07802383,-73.99212000
18.08058383,-73.99212000
18.08314383,-69.50591000
18.08570383,-69.50591000
18.08826383,-69.50591000
18.09082383,-69.50591000
18.09338383,-73.99212000
18.09594383,-69.50591000
18.09850383,-73.99212000
18.10106383,-69.50591000
18.10362383,-73.99212000
18.10618383,-73.99212000
18.10874383,-73.99212000
18.11130383,-73.99212000
18.11386383,-73.99212000
18.11642383,-73.99212000
18.11898383,-73.99212000
18.12154383,-73.99212000
18.12410383,-69.50591000
18.12666383,-69.50591000
18.12922383,-69.50591000
18.13178383,-69.50591000
18.13434383,-69.50591000
18.13690383,-69.50591000
18.13946383,-73.99212000
18.14202383,-69.50591000
18.14458383,-69.50591000
18.14714383,-69.50591000
18.14970383,-69.50591000
18.15226383,-73.99212000
18.15482383,-69.50591000
18.15738383,-69.50591000
18.15994383,-69.50591000
18.16250383,-69.50591000
18.16506383,-69.50591000
18.16762383,-69.50591000
18.17018383,-73.99212000
18.17274383,-73.99212000
18.17530383,-73.99212000
18.17786383,-69.50591000
18.18042383,-73.99212000
18.18298383,-69.50591000
18.18554383,-69.50591000
18.18810383,-73.99212000
18.19066383,-69.50591000
18.19322383,-69.50591000
18.19578383,-69.50591000
18.19834383,-69.50591000
18.20090383,-69.50591000
18.20346383,-73.99212000
18.20602383,-69.50591000
18.20858383,-69.50591000
18.21114383,-69.50591000
18.21370383,-73.99212000
18.21626383,-69.50591000
18.21882383,-69.50591000
18.22138383,-69.50591000
18.22394383,-69.50591000
18.22650383,-69.50591000
18.22906383,-69.50591000
18.23162383,-69.50591000
18.23418383,-69.50591000
18.23674383,-73.99212000
18.23930383,-69.50591000
18.24186383,-69.50591000
18.24442383,-69.50591000
18.24698383,-73.99212000
18.24954383,-69.50591000
18.25210383,-73.99212000
18.25466383,-69.50591000
18.25722383,-69.50591000
18.25978383,-73.99212000
18.26234383,-73.99212000
18.26490383,-73.99212000
18.26746383,-69.50591000
18.27002383,-69.50591000
18.27258383,-69.50591000
18.27514383,-73.99212000
18.27770383,-73.99212000
18.28026383,-73.99212000
18.28282383,-69.50591000
18.28538383,-69.50591000
18.28794383,-73.99212000
18.29050383,-73.99212000
18.29306383,-73.99212000
18.29562383,-69.50591000
18.29818383,-73.99212000
18.30074383,-73.99212000
18.30330383,-69.50591000
18.30586383,-73.99212000
18.30842383,-69.50591000
18.31098383,-69.50591000
18.31354383,-73.99212000
18.31610383,-73.99212000
18.31866383,-69.50591000
18.32122383,-73.99212000
18.32378383,-73.99212000
18.32634383,-73.99212000
18.32890383,-73.99212000
18.33146383,-73.99212000
18.33402383,-73.99212000
18.33658383,-73.99212000
18.33914383,-69.50591000
18.34170383,-69.50591000
18.34426383,-73.99212000
18.34682383,-73.99212000
18.34938383,-69.50591000
18.35194383,-73.99212000
18.35450383,-69.50591000
18.35706383,-73.99212000
18.35962383,-73.99212000
18.36218383,-73.99212000
18.36474383,-73.99212000
18.36730383,-73.99212000
18.36986383,-73.99212000
18.37242383,-73.99212000
18.37498383,-73.99212000
18.37754383,-73.99212000
18.38010383,-73.99212000
18.38266383,-69.50591000
18.38522383,-73.99212000
18.38778383,-73.99212000
18.39034383,-73.99212000
18.39290383,-73.99212000
18.39546383,-73.99212000
18.39802383,-73.99212000
18.40058383,-73.99212000
18.40314383,-73.99212000
18.40570383,-73.99212000
18.40826383,-69.50591000
18.41082383,-73.99212000
18.41338383,-69.50591000
18.41594383,-69.50591000
18.41850383,-73.99212000
18.42106383,-73.99212000
18.42362383,-73.99212000
18.42618383,-73.99212000
18.42874383,-78.46308000
18.43130383,-69.50591000
18.43386383,-69.50591000
18.43642383,-73.99212000
18.43898383,-73.99212000
18.44154383,-73.99212000
18.44410383,-69.50591000
18.44666383,-69.50591000
18.44922383,-73.99212000
18.45178383,-73.99212000
18.45434383,-69.50591000
18.45690383,-73.99212000
18.45946383,-69.50591000
18.46202383,-69.50591000
18.46458383,-69.50591000
18.46714383,-69.50591000
18.46970383,-73.99212000
18.47226383,-73.99212000
18.47482383,-73.99212000
18.47738383,-73.99212000
18.47994383,-73.99212000
18.48250383,-73.99212000
18.48506383,-69.50591000
18.48762383,-73.99212000
18.49018383,-69.50591000
18.49274383,-73.99212000
18.49530383,-73.99212000
18.49786383,-73.99212000
18.50042383,-73.99212000
18.50298383,-73.99212000
18.50554383,-73.99212000
18.50810383,-69.50591000
18.51066383,-73.99212000
18.51322383,-69.50591000
18.51578383,-69.50591000
18.51834383,-73.99212000
18.52090383,-69.50591000
18.52346383,-69.50591000
18.52602383,-73.99212000
18.52858383,-69.50591000
18.53114383,-73.99212000
18.53370383,-73.99212000
18.53626383,-69.50591000
18.53882383,-73.99212000
18.54138383,-69.50591000
18.54394383,-69.50591000
18.54650383,-73.99212000
18.54906383,-69.50591000
18.55162383,-78.46308000
18.55418383,-73.99212000
18.55674383,-73.99212000
18.55930383,-69.50591000
18.56186383,-69.50591000
18.56442383,-73.99212000
18.56698383,-69.50591000
18.56954383,-69.50591000
18.57210383,-73.99212000
18.57466383,-69.50591000
18.57722383,-73.99212000
18.57978383,-73.99212000
18.58234383,-69.50591000
18.58490383,-73.99212000
18.58746383,-69.50591000
18.59002383,-69.50591000
18.59258383,-69.50591000
18.59514383,-73.99212000
18.59770383,-69.50591000
18.60026383,-69.50591000
18.60282383,-69.50591000
18.60538383,-69.50591000
18.60794383,-69.50591000
18.61050383,-69.50591000
18.61306383,-69.50591000
18.61562383,-69.50591000
18.61818383,-69.50591000
18.62074383,-69.50591000
18.62330383,-69.50591000
18.62586383,-73.99212000
18.62842383,-73.99212000
18.63098383,-69.50591000
18.63354383,-73.99212000
18.63610383,-73.99212000
18.63866383,-73.99212000
18.64122383,-69.50591000
18.64378383,-73.99212000
18.64634383,-73.99212000
18.64890383,-73.99212000
18.65146383,-69.50591000
18.65402383,-69.50591000
18.65658383,-69.50591000
18.65914383,-69.50591000
18.66170383,-69.50591000
18.66426383,-69.50591000
18.66682383,-73.99212000
18.66938383,-69.50591000
18.67194383,-69.50591000
18.67450383,-69.50591000
18.67706383,-78.46308000
18.67962383,-73.99212000
