Time,Invert B
(ms),(mV)

-1.32141495,-73.99212000
-1.31885495,-73.99212000
-1.31629495,-73.99212000
-1.31373495,-73.99212000
-1.31117495,-69.50591000
-1.30861495,-73.99212000
-1.30605495,-73.99212000
-1.30349495,-73.99212000
-1.30093495,-73.99212000
-1.29837495,-73.99212000
-1.29581495,-69.50591000
-1.29325495,-73.99212000
-1.29069495,-73.99212000
-1.28813495,-73.99212000
-1.28557495,-73.99212000
-1.28301495,-73.99212000
-1.28045495,-73.99212000
-1.27789495,-73.99212000
-1.27533495,-73.99212000
-1.27277495,-73.99212000
-1.27021495,-73.99212000
-1.26765495,-73.99212000
-1.26509495,-73.99212000
-1.26253495,-69.50591000
-1.25997495,-73.99212000
-1.25741495,-69.50591000
-1.25485495,-69.50591000
-1.25229495,-73.99212000
-1.24973495,-69.50591000
-1.24717495,-69.50591000
-1.24461495,-73.99212000
-1.24205495,-73.99212000
-1.23949495,-73.99212000
-1.23693495,-73.99212000
-1.23437495,-73.99212000
-1.23181495,-73.99212000
-1.22925495,-73.99212000
-1.22669495,-73.99212000
-1.22413495,-73.99212000
-1.22157495,-73.99212000
-1.21901495,-73.99212000
-1.21645495,-73.99212000
-1.21389495,-73.99212000
-1.21133495,-69.50591000
-1.20877495,-73.99212000
-1.20621495,-73.99212000
-1.20365495,-78.46308000
-1.20109495,-73.99212000
-1.19853495,-69.50591000
-1.19597495,-73.99212000
-1.19341495,-73.99212000
-1.19085495,-73.99212000
-1.18829495,-73.99212000
-1.18573495,-73.99212000
-1.18317495,-73.99212000
-1.18061495,-73.99212000
-1.17805495,-73.99212000
-1.17549495,-73.99212000
-1.17293495,-73.99212000
-1.17037495,-73.99212000
-1.16781495,-73.99212000
-1.16525495,-73.99212000
-1.16269495,-73.99212000
-1.16013495,-73.99212000
-1.15757495,-69.50591000
-1.15501495,-73.99212000
-1.15245495,-73.99212000
-1.14989495,-73.99212000
-1.14733495,-73.99212000
-1.14477495,-73.99212000
-1.14221495,-69.50591000
-1.13965495,-73.99212000
-1.13709495,-73.99212000
-1.13453495,-73.99212000
-1.13197495,-73.99212000
-1.12941495,-73.99212000
-1.12685495,-73.99212000
-1.12429495,-73.99212000
-1.12173495,-69.50591000
-1.11917495,-73.99212000
-1.11661495,-73.99212000
-1.11405495,-73.99212000
-1.11149495,-73.99212000
-1.10893495,-73.99212000
-1.10637495,-73.99212000
-1.10381495,-73.99212000
-1.10125495,-73.99212000
-1.09869495,-73.99212000
-1.09613495,-78.46308000
-1.09357495,-73.99212000
-1.09101495,-73.99212000
-1.08845495,-73.99212000
-1.08589495,-73.99212000
-1.08333495,-69.50591000
-1.08077495,-73.99212000
-1.07821495,-78.46308000
-1.07565495,-73.99212000
-1.07309495,-73.99212000
-1.07053495,-73.99212000
-1.06797495,-73.99212000
-1.06541495,-73.99212000
-1.06285495,-73.99212000
-1.06029495,-73.99212000
-1.05773495,-73.99212000
-1.05517495,-73.99212000
-1.05261495,-69.50591000
-1.05005495,-73.99212000
-1.04749495,-73.99212000
-1.04493495,-73.99212000
-1.04237495,-73.99212000
-1.03981495,-73.99212000
-1.03725495,-73.99212000
-1.03469495,-73.99212000
-1.03213495,-69.50591000
-1.02957495,-73.99212000
-1.02701495,-73.99212000
-1.02445495,-73.99212000
-1.02189495,-73.99212000
-1.01933495,-73.99212000
-1.01677495,-73.99212000
-1.01421495,-73.99212000
-1.01165495,-73.99212000
-1.00909495,-73.99212000
-1.00653495,-69.50591000
-1.00397495,-73.99212000
-1.00141495,-73.99212000
-0.99885495,-69.50591000
-0.99629495,-73.99212000
-0.99373495,-73.99212000
-0.99117495,-73.99212000
-0.98861495,-69.50591000
-0.98605495,-73.99212000
-0.98349495,-73.99212000
-0.98093495,-69.50591000
-0.97837495,-73.99212000
-0.97581495,-73.99212000
-0.97325495,-73.99212000
-0.97069495,-73.99212000
-0.96813495,-73.99212000
-0.96557495,-73.99212000
-0.96301495,-73.99212000
-0.96045495,-73.99212000
-0.95789495,-73.99212000
-0.95533495,-73.99212000
-0.95277495,-78.46308000
-0.95021495,-73.99212000
-0.94765495,-73.99212000
-0.94509495,-73.99212000
-0.94253495,-73.99212000
-0.93997495,-73.99212000
-0.93741495,-73.99212000
-0.93485495,-73.99212000
-0.93229495,-73.99212000
-0.92973495,-73.99212000
-0.92717495,-73.99212000
-0.92461495,-73.99212000
-0.92205495,-73.99212000
-0.91949495,-73.99212000
-0.91693495,-73.99212000
-0.91437495,-73.99212000
-0.91181495,-73.99212000
-0.90925495,-73.99212000
-0.90669495,-73.99212000
-0.90413495,-69.50591000
-0.90157495,-73.99212000
-0.89901495,-73.99212000
-0.89645495,-73.99212000
-0.89389495,-73.99212000
-0.89133495,-73.99212000
-0.88877495,-73.99212000
-0.88621495,-73.99212000
-0.88365495,-73.99212000
-0.88109495,-73.99212000
-0.87853495,-73.99212000
-0.87597495,-73.99212000
-0.87341495,-73.99212000
-0.87085495,-73.99212000
-0.86829495,-73.99212000
-0.86573495,-73.99212000
-0.86317495,-69.50591000
-0.86061495,-73.99212000
-0.85805495,-73.99212000
-0.85549495,-78.46308000
-0.85293495,-73.99212000
-0.85037495,-73.99212000
-0.84781495,-73.99212000
-0.84525495,-73.99212000
-0.84269495,-73.99212000
-0.84013495,-73.99212000
-0.83757495,-73.99212000
-0.83501495,-73.99212000
-0.83245495,-73.99212000
-0.82989495,-73.99212000
-0.82733495,-73.99212000
-0.82477495,-73.99212000
-0.82221495,-73.99212000
-0.81965495,-78.46308000
-0.81709495,-69.50591000
-0.81453495,-87.40501000
-0.81197495,-65.03493000
-0.80941495,-82.93404000
-0.80685495,-105.28880000
-0.80429495,-123.17270000
-0.80173495,-141.07180000
-0.79917495,-154.48470000
-0.79661495,-167.89760000
-0.79405495,-172.36850000
-0.79149495,-181.31050000
-0.78893495,-185.78140000
-0.78637495,-194.73860000
-0.78381495,-199.20960000
-0.78125495,-203.68050000
-0.77869495,-212.62240000
-0.77613495,-212.62240000
-0.77357495,-221.56440000
-0.77101495,-221.56440000
-0.76845495,-230.50630000
-0.76589495,-230.50630000
-0.76333495,-234.97720000
-0.76077495,-234.97720000
-0.75821495,-239.44820000
-0.75565495,-239.44820000
-0.75309495,-239.44820000
-0.75053495,-243.91920000
-0.74797495,-243.91920000
-0.74541495,-248.40540000
-0.74285495,-248.40540000
-0.74029495,-248.40540000
-0.73773495,-248.40540000
-0.73517495,-248.40540000
-0.73261495,-248.40540000
-0.73005495,-248.40540000
-0.72749495,-248.40540000
-0.72493495,-248.40540000
-0.72237495,-248.40540000
-0.71981495,-248.40540000
-0.71725495,-243.91920000
-0.71469495,-243.91920000
-0.71213495,-239.44820000
-0.70957495,-239.44820000
-0.70701495,-239.44820000
-0.70445495,-234.97720000
-0.70189496,-230.50630000
-0.69933496,-230.50630000
-0.69677496,-230.50630000
-0.69421496,-226.03530000
-0.69165496,-226.03530000
-0.68909496,-221.56440000
-0.68653496,-221.56440000
-0.68397496,-217.09340000
-0.68141496,-212.62240000
-0.67885496,-212.62240000
-0.67629496,-208.15150000
-0.67373496,-203.68050000
-0.67117496,-203.68050000
-0.66861496,-199.20960000
-0.66605496,-194.73860000
-0.66349496,-194.73860000
-0.66093496,-190.26760000
-0.65837496,-185.78140000
-0.65581496,-185.78140000
-0.65325496,-181.31050000
-0.65069496,-176.83950000
-0.64813496,-176.83950000
-0.64557496,-172.36850000
-0.64301496,-167.89760000
-0.64045496,-163.42660000
-0.63789496,-158.95570000
-0.63533496,-158.95570000
-0.63277496,-154.48470000
-0.63021496,-154.48470000
-0.62765496,-150.01370000
-0.62509496,-150.01370000
-0.62253496,-145.54280000
-0.61997496,-141.07180000
-0.61741496,-136.60080000
-0.61485496,-132.12990000
-0.61229496,-132.12990000
-0.60973496,-132.12990000
-0.60717496,-123.17270000
-0.60461496,-123.17270000
-0.60205496,-123.17270000
-0.59949496,-118.70170000
-0.59693496,-114.23080000
-0.59437496,-114.23080000
-0.59181496,-109.75980000
-0.58925496,-105.28880000
-0.58669496,-105.28880000
-0.58413496,-105.28880000
-0.58157496,-96.34693000
-0.57901496,-96.34693000
-0.57645496,-96.34693000
-0.57389496,-91.87596000
-0.57133496,-87.40501000
-0.56877496,-87.40501000
-0.56621496,-87.40501000
-0.56365496,-82.93404000
-0.56109496,-78.46308000
-0.55853496,-78.46308000
-0.55597496,-78.46308000
-0.55341496,-73.99212000
-0.55085496,-73.99212000
-0.54829496,-69.50591000
-0.54573496,-65.03493000
-0.54317496,-65.03493000
-0.54061496,-65.03493000
-0.53805496,-60.56398000
-0.53549496,-60.56398000
-0.53293496,-56.09302000
-0.53037496,-56.09302000
-0.52781496,-51.62206000
-0.52525496,-51.62206000
-0.52269496,-51.62206000
-0.52013496,-51.62206000
-0.51757496,-47.15109000
-0.51501496,-47.15109000
-0.51245496,-42.68013000
-0.50989496,-42.68013000
-0.50733496,-42.68013000
-0.50477496,-38.20917000
-0.50221496,-38.20917000
-0.49965496,-38.20917000
-0.49709496,-33.73821000
-0.49453496,-33.73821000
-0.49197496,-33.73821000
-0.48941496,-33.73821000
-0.48685496,-29.26725000
-0.48429496,-29.26725000
-0.48173496,-29.26725000
-0.47917496,-24.79629000
-0.47661496,-29.26725000
-0.47405496,-24.79629000
-0.47149496,-24.79629000
-0.46893496,-24.79629000
-0.46637496,-24.79629000
-0.46381496,-20.32533000
-0.46125496,-20.32533000
-0.45869496,-20.32533000
-0.45613496,-20.32533000
-0.45357496,-15.85437000
-0.45101496,-15.85437000
-0.44845496,-15.85437000
-0.44589496,-15.85437000
-0.44333496,-15.85437000
-0.44077496,-15.85437000
-0.43821496,-15.85437000
-0.43565496,-15.85437000
-0.43309496,-15.85437000
-0.43053496,-15.85437000
-0.42797496,-15.85437000
-0.42541496,-11.38340000
-0.42285496,-11.38340000
-0.42029496,-15.85437000
-0.41773496,-11.38340000
-0.41517496,-11.38340000
-0.41261496,-11.38340000
-0.41005496,-11.38340000
-0.40749496,-11.38340000
-0.40493496,-11.38340000
-0.40237496,-6.91244200
-0.39981496,-6.91244200
-0.39725496,-6.91244200
-0.39469496,-11.38340000
-0.39213496,-6.91244200
-0.38957496,-11.38340000
-0.38701496,-6.91244200
-0.38445496,-6.91244200
-0.38189496,-6.91244200
-0.37933496,-6.91244200
-0.37677496,-6.91244200
-0.37421496,-6.91244200
-0.37165496,-6.91244200
-0.36909496,-6.91244200
-0.36653496,-6.91244200
-0.36397496,-6.91244200
-0.36141496,-6.91244200
-0.35885496,-6.91244200
-0.35629496,-6.91244200
-0.35373496,-6.91244200
-0.35117496,-6.91244200
-0.34861496,-11.38340000
-0.34605496,-6.91244200
-0.34349496,-11.38340000
-0.34093496,-6.91244200
-0.33837496,-6.91244200
-0.33581496,-11.38340000
-0.33325496,-11.38340000
-0.33069496,-6.91244200
-0.32813496,-11.38340000
-0.32557496,-11.38340000
-0.32301496,-6.91244200
-0.32045496,-11.38340000
-0.31789496,-11.38340000
-0.31533496,-11.38340000
-0.31277496,-11.38340000
-0.31021496,-11.38340000
-0.30765496,-11.38340000
-0.30509496,-11.38340000
-0.30253496,-11.38340000
-0.29997496,-11.38340000
-0.29741496,-11.38340000
-0.29485496,-11.38340000
-0.29229496,24.38429000
-0.28973496,109.36310000
-0.28717496,203.26850000
-0.28461496,270.36350000
-0.28205496,324.01500000
-0.27949496,359.79790000
-0.27693496,386.63900000
-0.27437496,413.46470000
-0.27181496,431.34860000
-0.26925496,449.24770000
-0.26669496,467.13150000
-0.26413496,485.01540000
-0.26157496,Infinity
-0.25901496,Infinity
-0.25645496,Infinity
-0.25389496,Infinity
-0.25133496,Infinity
-0.24877496,Infinity
-0.24621496,Infinity
-0.24365496,Infinity
-0.24109496,Infinity
-0.23853496,Infinity
-0.23597496,Infinity
-0.23341496,Infinity
-0.23085496,Infinity
-0.22829496,Infinity
-0.22573496,Infinity
-0.22317496,Infinity
-0.22061496,Infinity
-0.21805496,Infinity
-0.21549496,Infinity
-0.21293496,Infinity
-0.21037496,Infinity
-0.20781496,Infinity
-0.20525496,Infinity
-0.20269496,Infinity
-0.20013496,Infinity
-0.19757496,Infinity
-0.19501496,Infinity
-0.19245496,Infinity
-0.18989496,Infinity
-0.18733496,Infinity
-0.18477496,Infinity
-0.18221496,Infinity
-0.17965496,Infinity
-0.17709496,Infinity
-0.17453496,Infinity
-0.17197496,Infinity
-0.16941496,Infinity
-0.16685496,Infinity
-0.16429496,Infinity
-0.16173496,Infinity
-0.15917496,Infinity
-0.15661496,Infinity
-0.15405496,498.42830000
-0.15149496,493.95730000
-0.14893496,485.01540000
-0.14637496,476.07350000
-0.14381496,467.13150000
-0.14125496,458.18960000
-0.13869496,449.24770000
-0.13613496,440.29050000
-0.13357496,426.87760000
-0.13101496,422.40670000
-0.12845496,408.99380000
-0.12589496,400.05190000
-0.12333496,391.10990000
-0.12077496,382.15270000
-0.11821496,368.73990000
-0.11565496,359.79790000
-0.11309496,350.85600000
-0.11053496,341.91410000
-0.10797496,332.97220000
-0.10541496,324.01500000
-0.10285496,315.07310000
-0.10029496,306.13110000
-0.09773496,297.18920000
-0.09517496,288.24730000
-0.09261496,279.30540000
-0.09005496,265.87720000
-0.08749496,256.93530000
-0.08493496,252.46440000
-0.08237496,239.05150000
-0.07981496,230.10950000
-0.07725496,221.16760000
-0.07469496,212.21040000
-0.07213496,203.26850000
-0.06957496,194.32660000
-0.06701496,185.38470000
-0.06445496,176.44270000
-0.06189496,171.97180000
-0.05933496,158.55890000
-0.05677496,149.60170000
-0.05421496,145.13080000
-0.05165496,136.18880000
-0.04909496,127.24690000
-0.04653496,118.30500000
-0.04397496,109.36310000
-0.04141496,104.89210000
-0.03885496,95.93493000
-0.03629496,91.46397000
-0.03373496,82.52204000
-0.03117496,73.58012000
-0.02861496,64.63820000
-0.02605496,60.16724000
-0.02349496,51.22532000
-0.02093496,42.28339000
-0.01837496,37.79717000
-0.01581496,28.85525000
-0.01325496,24.38429000
-0.01069496,19.91333000
-0.00813496,10.97140000
-0.00557496,2.02948100
-0.00301496,-2.44148100
-0.00045496,-6.91244200
0.00210504,-15.85437000
0.00466504,-20.32533000
0.00722504,-24.79629000
0.00978504,-33.73821000
0.01234504,-33.73821000
0.01490504,-42.68013000
0.01746504,-51.62206000
0.02002504,-56.09302000
0.02258504,-60.56398000
0.02514504,-65.03493000
0.02770504,-69.50591000
0.03026504,-78.46308000
0.03282504,-78.46308000
0.03538504,-87.40501000
0.03794504,-87.40501000
0.04050504,-96.34693000
0.04306504,-100.81790000
0.04562504,-105.28880000
0.04818504,-109.75980000
0.05074504,-114.23080000
0.05330504,-114.23080000
0.05586504,-118.70170000
0.05842504,-123.17270000
0.06098504,-132.12990000
0.06354504,-132.12990000
0.06610504,-136.60080000
0.06866504,-141.07180000
0.07122504,-141.07180000
0.07378504,-150.01370000
0.07634504,-154.48470000
0.07890504,-154.48470000
0.08146504,-158.95570000
0.08402504,-163.42660000
0.08658504,-163.42660000
0.08914504,-167.89760000
0.09170504,-167.89760000
0.09426504,-172.36850000
0.09682504,-176.83950000
0.09938504,-176.83950000
0.10194504,-181.31050000
0.10450504,-185.78140000
0.10706504,-185.78140000
0.10962504,-190.26760000
0.11218504,-190.26760000
0.11474504,-194.73860000
0.11730504,-194.73860000
0.11986504,-199.20960000
0.12242504,-203.68050000
0.12498504,-203.68050000
0.12754504,-208.15150000
0.13010504,-208.15150000
0.13266504,-212.62240000
0.13522504,-212.62240000
0.13778504,-212.62240000
0.14034504,-212.62240000
0.14290504,-217.09340000
0.14546504,-221.56440000
0.14802504,-221.56440000
0.15058504,-221.56440000
0.15314504,-226.03530000
0.15570504,-226.03530000
0.15826504,-226.03530000
0.16082504,-230.50630000
0.16338504,-230.50630000
0.16594504,-230.50630000
0.16850504,-230.50630000
0.17106504,-230.50630000
0.17362504,-239.44820000
0.17618504,-234.97720000
0.17874504,-239.44820000
0.18130504,-239.44820000
0.18386504,-239.44820000
0.18642504,-239.44820000
0.18898504,-239.44820000
0.19154504,-243.91920000
0.19410504,-243.91920000
0.19666504,-243.91920000
0.19922504,-248.40540000
0.20178504,-243.91920000
0.20434504,-248.40540000
0.20690504,-248.40540000
0.20946504,-248.40540000
0.21202504,-248.40540000
0.21458504,-248.40540000
0.21714504,-248.40540000
0.21970504,-248.40540000
0.22226504,-248.40540000
0.22482504,-252.87640000
0.22738504,-252.87640000
0.22994504,-248.40540000
0.23250504,-252.87640000
0.23506504,-252.87640000
0.23762504,-252.87640000
0.24018504,-252.87640000
0.24274504,-257.34730000
0.24530504,-257.34730000
0.24786504,-252.87640000
0.25042504,-257.34730000
0.25298504,-257.34730000
0.25554504,-252.87640000
0.25810504,-257.34730000
0.26066504,-252.87640000
0.26322504,-257.34730000
0.26578504,-257.34730000
0.26834504,-257.34730000
0.27090504,-257.34730000
0.27346504,-257.34730000
0.27602504,-257.34730000
0.27858504,-257.34730000
0.28114504,-257.34730000
0.28370504,-257.34730000
0.28626504,-257.34730000
0.28882504,-252.87640000
0.29138504,-252.87640000
0.29394504,-257.34730000
0.29650504,-257.34730000
0.29906504,-252.87640000
0.30162504,-257.34730000
0.30418504,-252.87640000
0.30674504,-257.34730000
0.30930504,-252.87640000
0.31186504,-252.87640000
0.31442504,-252.87640000
0.31698504,-252.87640000
0.31954504,-252.87640000
0.32210504,-252.87640000
0.32466504,-248.40540000
0.32722504,-252.87640000
0.32978504,-248.40540000
0.33234504,-248.40540000
0.33490504,-248.40540000
0.33746504,-248.40540000
0.34002504,-248.40540000
0.34258504,-248.40540000
0.34514504,-248.40540000
0.34770504,-248.40540000
0.35026504,-248.40540000
0.35282504,-248.40540000
0.35538504,-248.40540000
0.35794504,-248.40540000
0.36050504,-248.40540000
0.36306504,-248.40540000
0.36562504,-248.40540000
0.36818504,-243.91920000
0.37074504,-243.91920000
0.37330504,-243.91920000
0.37586504,-243.91920000
0.37842504,-243.91920000
0.38098504,-243.91920000
0.38354504,-239.44820000
0.38610504,-243.91920000
0.38866504,-239.44820000
0.39122504,-239.44820000
0.39378504,-239.44820000
0.39634504,-239.44820000
0.39890504,-239.44820000
0.40146504,-239.44820000
0.40402504,-239.44820000
0.40658504,-239.44820000
0.40914504,-234.97720000
0.41170504,-239.44820000
0.41426504,-234.97720000
0.41682504,-234.97720000
0.41938504,-230.50630000
0.42194504,-234.97720000
0.42450504,-230.50630000
0.42706504,-230.50630000
0.42962504,-230.50630000
0.43218504,-230.50630000
0.43474504,-230.50630000
0.43730504,-230.50630000
0.43986504,-230.50630000
0.44242504,-230.50630000
0.44498504,-230.50630000
0.44754504,-230.50630000
0.45010504,-230.50630000
0.45266504,-226.03530000
0.45522504,-226.03530000
0.45778504,-226.03530000
0.46034504,-226.03530000
0.46290504,-226.03530000
0.46546504,-226.03530000
0.46802504,-226.03530000
0.47058504,-221.56440000
0.47314504,-221.56440000
0.47570504,-221.56440000
0.47826504,-221.56440000
0.48082504,-221.56440000
0.48338504,-217.09340000
0.48594504,-221.56440000
0.48850504,-217.09340000
0.49106504,-217.09340000
0.49362504,-212.62240000
0.49618504,-212.62240000
0.49874504,-212.62240000
0.50130504,-212.62240000
0.50386504,-212.62240000
0.50642504,-212.62240000
0.50898504,-212.62240000
0.51154504,-212.62240000
0.51410504,-212.62240000
0.51666504,-212.62240000
0.51922504,-208.15150000
0.52178504,-208.15150000
0.52434504,-208.15150000
0.52690504,-208.15150000
0.52946504,-208.15150000
0.53202504,-208.15150000
0.53458504,-203.68050000
0.53714504,-208.15150000
0.53970504,-203.68050000
0.54226504,-203.68050000
0.54482504,-203.68050000
0.54738504,-203.68050000
0.54994504,-203.68050000
0.55250504,-203.68050000
0.55506504,-199.20960000
0.55762504,-199.20960000
0.56018504,-199.20960000
0.56274504,-199.20960000
0.56530504,-194.73860000
0.56786504,-194.73860000
0.57042504,-199.20960000
0.57298504,-194.73860000
0.57554504,-194.73860000
0.57810504,-194.73860000
0.58066504,-194.73860000
0.58322504,-194.73860000
0.58578504,-194.73860000
0.58834504,-194.73860000
0.59090504,-194.73860000
0.59346504,-194.73860000
0.59602504,-190.26760000
0.59858504,-190.26760000
0.60114504,-190.26760000
0.60370504,-185.78140000
0.60626504,-185.78140000
0.60882504,-185.78140000
0.61138504,-185.78140000
0.61394504,-185.78140000
0.61650504,-185.78140000
0.61906504,-185.78140000
0.62162504,-181.31050000
0.62418504,-185.78140000
0.62674504,-181.31050000
0.62930504,-185.78140000
0.63186504,-181.31050000
0.63442504,-181.31050000
0.63698504,-181.31050000
0.63954504,-176.83950000
0.64210504,-176.83950000
0.64466504,-176.83950000
0.64722504,-176.83950000
0.64978504,-176.83950000
0.65234504,-176.83950000
0.65490504,-176.83950000
0.65746504,-176.83950000
0.66002504,-176.83950000
0.66258504,-176.83950000
0.66514504,-176.83950000
0.66770504,-176.83950000
0.67026504,-172.36850000
0.67282504,-172.36850000
0.67538504,-172.36850000
0.67794504,-172.36850000
0.68050504,-172.36850000
0.68306504,-172.36850000
0.68562504,-167.89760000
0.68818504,-172.36850000
0.69074504,-167.89760000
0.69330504,-167.89760000
0.69586504,-167.89760000
0.69842504,-167.89760000
0.70098504,-167.89760000
0.70354504,-167.89760000
0.70610504,-163.42660000
0.70866504,-163.42660000
0.71122504,-163.42660000
0.71378504,-167.89760000
0.71634504,-163.42660000
0.71890504,-163.42660000
0.72146504,-158.95570000
0.72402504,-163.42660000
0.72658504,-163.42660000
0.72914504,-158.95570000
0.73170504,-158.95570000
0.73426504,-158.95570000
0.73682504,-158.95570000
0.73938504,-158.95570000
0.74194504,-158.95570000
0.74450504,-158.95570000
0.74706504,-158.95570000
0.74962504,-158.95570000
0.75218504,-158.95570000
0.75474504,-158.95570000
0.75730504,-154.48470000
0.75986504,-158.95570000
0.76242504,-158.95570000
0.76498504,-158.95570000
0.76754504,-154.48470000
0.77010504,-154.48470000
0.77266504,-154.48470000
0.77522504,-154.48470000
0.77778504,-150.01370000
0.78034504,-154.48470000
0.78290504,-154.48470000
0.78546504,-150.01370000
0.78802504,-150.01370000
0.79058504,-150.01370000
0.79314504,-150.01370000
0.79570504,-150.01370000
0.79826504,-150.01370000
0.80082504,-150.01370000
0.80338504,-150.01370000
0.80594504,-150.01370000
0.80850504,-150.01370000
0.81106504,-150.01370000
0.81362504,-150.01370000
0.81618504,-145.54280000
0.81874504,-145.54280000
0.82130504,-141.07180000
0.82386504,-141.07180000
0.82642504,-141.07180000
0.82898504,-141.07180000
0.83154504,-145.54280000
0.83410504,-141.07180000
0.83666504,-141.07180000
0.83922504,-141.07180000
0.84178504,-141.07180000
0.84434504,-141.07180000
0.84690504,-141.07180000
0.84946504,-141.07180000
0.85202504,-141.07180000
0.85458504,-141.07180000
0.85714504,-141.07180000
0.85970504,-141.07180000
0.86226504,-141.07180000
0.86482504,-136.60080000
0.86738504,-136.60080000
0.86994504,-136.60080000
0.87250504,-136.60080000
0.87506504,-136.60080000
0.87762504,-136.60080000
0.88018504,-136.60080000
0.88274504,-136.60080000
0.88530504,-136.60080000
0.88786504,-132.12990000
0.89042504,-132.12990000
0.89298504,-132.12990000
0.89554504,-132.12990000
0.89810504,-132.12990000
0.90066504,-132.12990000
0.90322504,-132.12990000
0.90578504,-132.12990000
0.90834504,-132.12990000
0.91090504,-132.12990000
0.91346504,-132.12990000
0.91602504,-127.64370000
0.91858504,-132.12990000
0.92114504,-132.12990000
0.92370504,-123.17270000
0.92626504,-127.64370000
0.92882504,-127.64370000
0.93138504,-123.17270000
0.93394504,-127.64370000
0.93650504,-127.64370000
0.93906504,-123.17270000
0.94162504,-127.64370000
0.94418503,-123.17270000
0.94674503,-123.17270000
0.94930503,-123.17270000
0.95186503,-123.17270000
0.95442503,-123.17270000
0.95698503,-123.17270000
0.95954503,-123.17270000
0.96210503,-123.17270000
0.96466503,-123.17270000
0.96722503,-118.70170000
0.96978503,-123.17270000
0.97234503,-123.17270000
0.97490503,-123.17270000
0.97746503,-118.70170000
0.98002503,-118.70170000
0.98258503,-118.70170000
0.98514503,-118.70170000
0.98770503,-118.70170000
0.99026503,-118.70170000
0.99282503,-118.70170000
0.99538503,-118.70170000
0.99794503,-118.70170000
1.00050503,-118.70170000
1.00306503,-114.23080000
1.00562503,-118.70170000
1.00818503,-114.23080000
1.01074503,-118.70170000
1.01330503,-114.23080000
1.01586503,-114.23080000
1.01842503,-114.23080000
1.02098503,-114.23080000
1.02354503,-114.23080000
1.02610503,-114.23080000
1.02866503,-114.23080000
1.03122503,-114.23080000
1.03378503,-114.23080000
1.03634503,-114.23080000
1.03890503,-114.23080000
1.04146503,-114.23080000
1.04402503,-114.23080000
1.04658503,-114.23080000
1.04914503,-109.75980000
1.05170503,-109.75980000
1.05426503,-105.28880000
1.05682503,-109.75980000
1.05938503,-109.75980000
1.06194503,-109.75980000
1.06450503,-105.28880000
1.06706503,-105.28880000
1.06962503,-109.75980000
1.07218503,-109.75980000
1.07474503,-105.28880000
1.07730503,-105.28880000
1.07986503,-105.28880000
1.08242503,-105.28880000
1.08498503,-105.28880000
1.08754503,-105.28880000
1.09010503,-105.28880000
1.09266503,-105.28880000
1.09522503,-105.28880000
1.09778503,-105.28880000
1.10034503,-105.28880000
1.10290503,-105.28880000
1.10546503,-105.28880000
1.10802503,-105.28880000
1.11058503,-105.28880000
1.11314503,-105.28880000
1.11570503,-105.28880000
1.11826503,-105.28880000
1.12082503,-105.28880000
1.12338503,-105.28880000
1.12594503,-105.28880000
1.12850503,-105.28880000
1.13106503,-105.28880000
1.13362503,-100.81790000
1.13618503,-100.81790000
1.13874503,-100.81790000
1.14130503,-100.81790000
1.14386503,-100.81790000
1.14642503,-100.81790000
1.14898503,-100.81790000
1.15154503,-100.81790000
1.15410503,-100.81790000
1.15666503,-100.81790000
1.15922503,-100.81790000
1.16178503,-100.81790000
1.16434503,-100.81790000
1.16690503,-96.34693000
1.16946503,-100.81790000
1.17202503,-96.34693000
1.17458503,-96.34693000
1.17714503,-96.34693000
1.17970503,-96.34693000
1.18226503,-96.34693000
1.18482503,-96.34693000
1.18738503,-96.34693000
1.18994503,-96.34693000
1.19250503,-96.34693000
1.19506503,-96.34693000
1.19762503,-96.34693000
1.20018503,-96.34693000
1.20274503,-96.34693000
1.20530503,-96.34693000
1.20786503,-96.34693000
1.21042503,-96.34693000
1.21298503,-96.34693000
1.21554503,-96.34693000
1.21810503,-96.34693000
1.22066503,-96.34693000
1.22322503,-96.34693000
1.22578503,-96.34693000
1.22834503,-96.34693000
1.23090503,-96.34693000
1.23346503,-96.34693000
1.23602503,-96.34693000
1.23858503,-91.87596000
1.24114503,-91.87596000
1.24370503,-96.34693000
1.24626503,-96.34693000
1.24882503,-96.34693000
1.25138503,-91.87596000
1.25394503,-96.34693000
1.25650503,-91.87596000
1.25906503,-96.34693000
1.26162503,-91.87596000
1.26418503,-87.40501000
1.26674503,-91.87596000
1.26930503,-87.40501000
1.27186503,-91.87596000
1.27442503,-91.87596000
1.27698503,-91.87596000
1.27954503,-87.40501000
1.28210503,-91.87596000
1.28466503,-87.40501000
1.28722503,-91.87596000
1.28978503,-87.40501000
1.29234503,-87.40501000
1.29490503,-87.40501000
1.29746503,-87.40501000
1.30002503,-87.40501000
1.30258503,-87.40501000
1.30514503,-91.87596000
1.30770503,-87.40501000
1.31026503,-87.40501000
1.31282503,-87.40501000
1.31538503,-91.87596000
1.31794503,-87.40501000
1.32050503,-87.40501000
1.32306503,-87.40501000
1.32562503,-87.40501000
1.32818503,-87.40501000
1.33074503,-87.40501000
1.33330503,-87.40501000
1.33586503,-87.40501000
1.33842503,-87.40501000
1.34098503,-87.40501000
1.34354503,-87.40501000
1.34610503,-87.40501000
1.34866503,-87.40501000
1.35122503,-87.40501000
1.35378503,-87.40501000
1.35634503,-87.40501000
1.35890503,-87.40501000
1.36146503,-87.40501000
1.36402503,-87.40501000
1.36658503,-87.40501000
1.36914503,-87.40501000
1.37170503,-87.40501000
1.37426503,-87.40501000
1.37682503,-87.40501000
1.37938503,-87.40501000
1.38194503,-87.40501000
1.38450503,-87.40501000
1.38706503,-87.40501000
1.38962503,-87.40501000
1.39218503,-87.40501000
1.39474503,-87.40501000
1.39730503,-87.40501000
1.39986503,-87.40501000
1.40242503,-87.40501000
1.40498503,-82.93404000
1.40754503,-87.40501000
1.41010503,-82.93404000
1.41266503,-87.40501000
1.41522503,-87.40501000
1.41778503,-87.40501000
1.42034503,-87.40501000
1.42290503,-82.93404000
1.42546503,-82.93404000
1.42802503,-82.93404000
1.43058503,-82.93404000
1.43314503,-82.93404000
1.43570503,-87.40501000
1.43826503,-82.93404000
1.44082503,-82.93404000
1.44338503,-82.93404000
1.44594503,-82.93404000
1.44850503,-82.93404000
1.45106503,-82.93404000
1.45362503,-82.93404000
1.45618503,-82.93404000
1.45874503,-82.93404000
1.46130503,-82.93404000
1.46386503,-82.93404000
1.46642503,-82.93404000
1.46898503,-82.93404000
1.47154503,-82.93404000
1.47410503,-82.93404000
1.47666503,-82.93404000
1.47922503,-82.93404000
1.48178503,-82.93404000
1.48434503,-82.93404000
1.48690503,-82.93404000
1.48946503,-78.46308000
1.49202503,-82.93404000
1.49458503,-82.93404000
1.49714503,-82.93404000
1.49970503,-78.46308000
1.50226503,-78.46308000
1.50482503,-82.93404000
1.50738503,-78.46308000
1.50994503,-82.93404000
1.51250503,-82.93404000
1.51506503,-82.93404000
1.51762503,-82.93404000
1.52018503,-82.93404000
1.52274503,-78.46308000
1.52530503,-78.46308000
1.52786503,-82.93404000
1.53042503,-78.46308000
1.53298503,-78.46308000
1.53554503,-78.46308000
1.53810503,-82.93404000
1.54066503,-78.46308000
1.54322503,-78.46308000
1.54578503,-82.93404000
1.54834503,-82.93404000
1.55090503,-82.93404000
1.55346503,-78.46308000
1.55602503,-78.46308000
1.55858503,-82.93404000
1.56114503,-78.46308000
1.56370503,-82.93404000
1.56626503,-78.46308000
1.56882503,-82.93404000
1.57138503,-78.46308000
1.57394503,-78.46308000
1.57650503,-78.46308000
1.57906503,-82.93404000
1.58162503,-78.46308000
1.58418503,-78.46308000
1.58674503,-78.46308000
1.58930503,-78.46308000
1.59186503,-78.46308000
1.59442503,-78.46308000
1.59698503,-78.46308000
1.59954503,-78.46308000
1.60210503,-78.46308000
1.60466503,-78.46308000
1.60722503,-78.46308000
1.60978503,-78.46308000
1.61234503,-78.46308000
1.61490503,-78.46308000
1.61746503,-78.46308000
1.62002503,-78.46308000
1.62258503,-78.46308000
1.62514503,-78.46308000
1.62770503,-78.46308000
1.63026503,-78.46308000
1.63282503,-78.46308000
1.63538503,-78.46308000
1.63794503,-78.46308000
1.64050503,-78.46308000
1.64306503,-78.46308000
1.64562503,-78.46308000
1.64818503,-78.46308000
1.65074503,-78.46308000
1.65330503,-78.46308000
1.65586503,-78.46308000
1.65842503,-78.46308000
1.66098503,-78.46308000
1.66354503,-78.46308000
1.66610503,-78.46308000
1.66866503,-78.46308000
1.67122503,-78.46308000
1.67378503,-78.46308000
1.67634503,-78.46308000
1.67890503,-78.46308000
1.68146503,-78.46308000
1.68402503,-78.46308000
1.68658503,-78.46308000
1.68914503,-78.46308000
1.69170503,-78.46308000
1.69426503,-78.46308000
1.69682503,-78.46308000
1.69938503,-78.46308000
1.70194503,-78.46308000
1.70450503,-78.46308000
1.70706503,-78.46308000
1.70962503,-78.46308000
1.71218503,-78.46308000
1.71474503,-78.46308000
1.71730503,-78.46308000
1.71986503,-78.46308000
1.72242503,-78.46308000
1.72498503,-78.46308000
1.72754503,-78.46308000
1.73010503,-73.99212000
1.73266503,-73.99212000
1.73522503,-78.46308000
1.73778503,-78.46308000
1.74034503,-73.99212000
1.74290503,-78.46308000
1.74546503,-73.99212000
1.74802503,-78.46308000
1.75058503,-73.99212000
1.75314503,-73.99212000
1.75570503,-73.99212000
1.75826503,-73.99212000
1.76082503,-73.99212000
1.76338503,-73.99212000
1.76594503,-73.99212000
1.76850503,-73.99212000
1.77106503,-73.99212000
1.77362503,-78.46308000
1.77618503,-73.99212000
1.77874503,-73.99212000
1.78130503,-78.46308000
1.78386503,-73.99212000
1.78642503,-73.99212000
1.78898503,-73.99212000
1.79154503,-73.99212000
1.79410503,-73.99212000
1.79666503,-73.99212000
1.79922503,-73.99212000
1.80178503,-73.99212000
1.80434503,-73.99212000
1.80690503,-73.99212000
1.80946503,-69.50591000
1.81202503,-73.99212000
1.81458503,-73.99212000
1.81714503,-73.99212000
1.81970503,-73.99212000
1.82226503,-73.99212000
1.82482503,-73.99212000
1.82738503,-69.50591000
1.82994503,-73.99212000
1.83250503,-73.99212000
1.83506503,-73.99212000
1.83762503,-69.50591000
1.84018503,-73.99212000
1.84274503,-73.99212000
1.84530503,-73.99212000
1.84786503,-73.99212000
1.85042503,-69.50591000
1.85298503,-73.99212000
1.85554503,-73.99212000
1.85810503,-69.50591000
1.86066503,-73.99212000
1.86322503,-73.99212000
1.86578503,-73.99212000
1.86834503,-69.50591000
1.87090503,-73.99212000
1.87346503,-73.99212000
1.87602503,-73.99212000
1.87858503,-69.50591000
1.88114503,-69.50591000
1.88370503,-73.99212000
1.88626503,-73.99212000
1.88882503,-69.50591000
1.89138503,-73.99212000
1.89394503,-69.50591000
1.89650503,-73.99212000
1.89906503,-69.50591000
1.90162503,-73.99212000
1.90418503,-69.50591000
1.90674503,-69.50591000
1.90930503,-69.50591000
1.91186503,-69.50591000
1.91442503,-69.50591000
1.91698503,-69.50591000
1.91954503,-69.50591000
1.92210503,-69.50591000
1.92466503,-69.50591000
1.92722503,-69.50591000
1.92978503,-69.50591000
1.93234503,-69.50591000
1.93490503,-69.50591000
1.93746503,-73.99212000
1.94002503,-69.50591000
1.94258503,-69.50591000
1.94514503,-69.50591000
1.94770503,-73.99212000
1.95026503,-69.50591000
1.95282503,-69.50591000
1.95538503,-69.50591000
1.95794503,-69.50591000
1.96050503,-69.50591000
1.96306503,-69.50591000
1.96562503,-69.50591000
1.96818503,-69.50591000
1.97074503,-69.50591000
1.97330503,-69.50591000
1.97586503,-69.50591000
1.97842503,-69.50591000
1.98098503,-69.50591000
1.98354503,-69.50591000
1.98610503,-69.50591000
1.98866503,-69.50591000
1.99122503,-69.50591000
1.99378503,-69.50591000
1.99634503,-69.50591000
1.99890503,-69.50591000
2.00146503,-69.50591000
2.00402503,-69.50591000
2.00658503,-69.50591000
2.00914503,-69.50591000
2.01170503,-69.50591000
2.01426503,-69.50591000
2.01682503,-69.50591000
2.01938503,-69.50591000
2.02194503,-69.50591000
2.02450503,-69.50591000
2.02706503,-69.50591000
2.02962503,-69.50591000
2.03218503,-69.50591000
2.03474503,-69.50591000
2.03730503,-69.50591000
2.03986503,-69.50591000
2.04242503,-69.50591000
2.04498503,-69.50591000
2.04754503,-69.50591000
2.05010503,-69.50591000
2.05266503,-69.50591000
2.05522503,-69.50591000
2.05778503,-69.50591000
2.06034503,-69.50591000
2.06290503,-69.50591000
2.06546503,-69.50591000
2.06802503,-69.50591000
2.07058503,-69.50591000
2.07314503,-69.50591000
2.07570503,-69.50591000
2.07826503,-69.50591000
2.08082503,-69.50591000
2.08338503,-69.50591000
2.08594503,-69.50591000
2.08850503,-69.50591000
2.09106503,-69.50591000
2.09362503,-69.50591000
2.09618503,-69.50591000
2.09874503,-69.50591000
2.10130503,-73.99212000
2.10386503,-69.50591000
2.10642503,-69.50591000
2.10898503,-73.99212000
2.11154503,-69.50591000
2.11410503,-69.50591000
2.11666503,-69.50591000
2.11922503,-69.50591000
2.12178503,-69.50591000
2.12434503,-73.99212000
2.12690503,-73.99212000
2.12946503,-73.99212000
2.13202503,-69.50591000
2.13458503,-73.99212000
2.13714503,-73.99212000
2.13970503,-78.46308000
2.14226503,-73.99212000
2.14482503,-73.99212000
2.14738503,-73.99212000
2.14994503,-73.99212000
2.15250503,-73.99212000
2.15506503,-78.46308000
2.15762503,-73.99212000
2.16018503,-78.46308000
2.16274503,-73.99212000
2.16530503,-78.46308000
2.16786503,-78.46308000
2.17042503,-78.46308000
2.17298503,-78.46308000
2.17554503,-78.46308000
2.17810503,-78.46308000
2.18066503,-78.46308000
2.18322503,-78.46308000
2.18578503,-78.46308000
2.18834503,-78.46308000
2.19090503,-78.46308000
2.19346503,-78.46308000
2.19602503,-78.46308000
2.19858503,-78.46308000
2.20114503,-78.46308000
2.20370503,-82.93404000
2.20626503,-78.46308000
2.20882503,-82.93404000
2.21138503,-82.93404000
2.21394503,-82.93404000
2.21650503,-82.93404000
2.21906503,-82.93404000
2.22162503,-87.40501000
2.22418503,-82.93404000
2.22674503,-87.40501000
2.22930503,-82.93404000
2.23186503,-87.40501000
2.23442503,-87.40501000
2.23698503,-87.40501000
2.23954503,-87.40501000
2.24210503,-87.40501000
2.24466503,-87.40501000
2.24722503,-87.40501000
2.24978503,-87.40501000
2.25234503,-87.40501000
2.25490503,-87.40501000
2.25746503,-91.87596000
2.26002503,-91.87596000
2.26258503,-91.87596000
2.26514503,-91.87596000
2.26770503,-91.87596000
2.27026503,-96.34693000
2.27282503,-96.34693000
2.27538503,-96.34693000
2.27794503,-96.34693000
2.28050503,-96.34693000
2.28306503,-96.34693000
2.28562503,-96.34693000
2.28818503,-96.34693000
2.29074503,-96.34693000
2.29330503,-96.34693000
2.29586503,-100.81790000
2.29842503,-100.81790000
2.30098503,-100.81790000
2.30354503,-100.81790000
2.30610503,-100.81790000
2.30866503,-100.81790000
2.31122503,-100.81790000
2.31378503,-105.28880000
2.31634503,-105.28880000
2.31890503,-105.28880000
2.32146503,-105.28880000
2.32402503,-105.28880000
2.32658503,-105.28880000
2.32914503,-105.28880000
2.33170503,-105.28880000
2.33426503,-105.28880000
2.33682503,-105.28880000
2.33938503,-105.28880000
2.34194503,-109.75980000
2.34450503,-105.28880000
2.34706503,-109.75980000
2.34962503,-109.75980000
2.35218503,-114.23080000
2.35474503,-109.75980000
2.35730503,-114.23080000
2.35986503,-109.75980000
2.36242503,-114.23080000
2.36498503,-114.23080000
2.36754503,-114.23080000
2.37010503,-114.23080000
2.37266503,-114.23080000
2.37522503,-114.23080000
2.37778503,-114.23080000
2.38034503,-114.23080000
2.38290503,-114.23080000
2.38546503,-114.23080000
2.38802503,-114.23080000
2.39058503,-114.23080000
2.39314503,-114.23080000
2.39570503,-114.23080000
2.39826503,-114.23080000
2.40082503,-114.23080000
2.40338503,-114.23080000
2.40594503,-114.23080000
2.40850503,-114.23080000
2.41106503,-114.23080000
2.41362503,-118.70170000
2.41618503,-118.70170000
2.41874503,-114.23080000
2.42130503,-114.23080000
2.42386503,-118.70170000
2.42642503,-114.23080000
2.42898503,-114.23080000
2.43154503,-118.70170000
2.43410503,-118.70170000
2.43666503,-114.23080000
2.43922503,-118.70170000
2.44178503,-114.23080000
2.44434503,-118.70170000
2.44690503,-114.23080000
2.44946503,-114.23080000
2.45202503,-114.23080000
2.45458503,-114.23080000
2.45714503,-118.70170000
2.45970503,-118.70170000
2.46226503,-114.23080000
2.46482503,-114.23080000
2.46738503,-118.70170000
2.46994503,-118.70170000
2.47250503,-114.23080000
2.47506503,-114.23080000
2.47762503,-114.23080000
2.48018503,-114.23080000
2.48274503,-114.23080000
2.48530503,-114.23080000
2.48786503,-114.23080000
2.49042503,-118.70170000
2.49298503,-114.23080000
2.49554503,-114.23080000
2.49810503,-114.23080000
2.50066503,-114.23080000
2.50322503,-118.70170000
2.50578503,-114.23080000
2.50834503,-114.23080000
2.51090503,-114.23080000
2.51346503,-114.23080000
2.51602503,-114.23080000
2.51858503,-114.23080000
2.52114503,-114.23080000
2.52370503,-114.23080000
2.52626503,-114.23080000
2.52882503,-114.23080000
2.53138503,-114.23080000
2.53394503,-114.23080000
2.53650503,-114.23080000
2.53906503,-114.23080000
2.54162503,-114.23080000
2.54418503,-114.23080000
2.54674503,-114.23080000
2.54930503,-109.75980000
2.55186503,-114.23080000
2.55442503,-114.23080000
2.55698503,-114.23080000
2.55954503,-114.23080000
2.56210503,-114.23080000
2.56466503,-114.23080000
2.56722503,-109.75980000
2.56978503,-114.23080000
2.57234503,-114.23080000
2.57490503,-109.75980000
2.57746503,-109.75980000
2.58002503,-109.75980000
2.58258503,-109.75980000
2.58514503,-109.75980000
2.58770503,-109.75980000
2.59026502,-109.75980000
2.59282502,-109.75980000
2.59538502,-105.28880000
2.59794502,-105.28880000
2.60050502,-105.28880000
2.60306502,-105.28880000
2.60562502,-105.28880000
2.60818502,-105.28880000
2.61074502,-105.28880000
2.61330502,-105.28880000
2.61586502,-105.28880000
2.61842502,-105.28880000
2.62098502,-105.28880000
2.62354502,-105.28880000
2.62610502,-105.28880000
2.62866502,-105.28880000
2.63122502,-105.28880000
2.63378502,-105.28880000
2.63634502,-105.28880000
2.63890502,-105.28880000
2.64146502,-105.28880000
2.64402502,-105.28880000
2.64658502,-100.81790000
2.64914502,-100.81790000
2.65170502,-100.81790000
2.65426502,-100.81790000
2.65682502,-100.81790000
2.65938502,-100.81790000
2.66194502,-100.81790000
2.66450502,-100.81790000
2.66706502,-100.81790000
2.66962502,-96.34693000
2.67218502,-96.34693000
2.67474502,-96.34693000
2.67730502,-96.34693000
2.67986502,-96.34693000
2.68242502,-96.34693000
2.68498502,-96.34693000
2.68754502,-96.34693000
2.69010502,-96.34693000
2.69266502,-96.34693000
2.69522502,-96.34693000
2.69778502,-96.34693000
2.70034502,-91.87596000
2.70290502,-91.87596000
2.70546502,-91.87596000
2.70802502,-91.87596000
2.71058502,-91.87596000
2.71314502,-87.40501000
2.71570502,-87.40501000
2.71826502,-87.40501000
2.72082502,-87.40501000
2.72338502,-87.40501000
2.72594502,-87.40501000
2.72850502,-87.40501000
2.73106502,-87.40501000
2.73362502,-82.93404000
2.73618502,-82.93404000
2.73874502,-82.93404000
2.74130502,-82.93404000
2.74386502,-78.46308000
2.74642502,-78.46308000
2.74898502,-78.46308000
2.75154502,-78.46308000
2.75410502,-78.46308000
2.75666502,-73.99212000
2.75922502,-73.99212000
2.76178502,-73.99212000
2.76434502,-69.50591000
2.76690502,-69.50591000
2.76946502,-69.50591000
2.77202502,-69.50591000
2.77458502,-69.50591000
2.77714502,-69.50591000
2.77970502,-65.03493000
2.78226502,-69.50591000
2.78482502,-69.50591000
2.78738502,-65.03493000
2.78994502,-65.03493000
2.79250502,-65.03493000
2.79506502,-60.56398000
2.79762502,-60.56398000
2.80018502,-60.56398000
2.80274502,-60.56398000
2.80530502,-60.56398000
2.80786502,-60.56398000
2.81042502,-60.56398000
2.81298502,-56.09302000
2.81554502,-56.09302000
2.81810502,-51.62206000
2.82066502,-51.62206000
2.82322502,-51.62206000
2.82578502,-51.62206000
2.82834502,-51.62206000
2.83090502,-51.62206000
2.83346502,-51.62206000
2.83602502,-51.62206000
2.83858502,-47.15109000
2.84114502,-47.15109000
2.84370502,-47.15109000
2.84626502,-47.15109000
2.84882502,-42.68013000
2.85138502,-42.68013000
2.85394502,-42.68013000
2.85650502,-42.68013000
2.85906502,-42.68013000
2.86162502,-42.68013000
2.86418502,-42.68013000
2.86674502,-42.68013000
2.86930502,-42.68013000
2.87186502,-42.68013000
2.87442502,-38.20917000
2.87698502,-38.20917000
2.87954502,-33.73821000
2.88210502,-33.73821000
2.88466502,-33.73821000
2.88722502,-33.73821000
2.88978502,-33.73821000
2.89234502,-33.73821000
2.89490502,-33.73821000
2.89746502,-33.73821000
2.90002502,-33.73821000
2.90258502,-33.73821000
2.90514502,-33.73821000
2.90770502,-33.73821000
2.91026502,-33.73821000
2.91282502,-29.26725000
2.91538502,-33.73821000
2.91794502,-29.26725000
2.92050502,-29.26725000
2.92306502,-29.26725000
2.92562502,-29.26725000
2.92818502,-29.26725000
2.93074502,-29.26725000
2.93330502,-24.79629000
2.93586502,-24.79629000
2.93842502,-29.26725000
2.94098502,-24.79629000
2.94354502,-24.79629000
2.94610502,-24.79629000
2.94866502,-24.79629000
2.95122502,-24.79629000
2.95378502,-24.79629000
2.95634502,-24.79629000
2.95890502,-24.79629000
2.96146502,-24.79629000
2.96402502,-24.79629000
2.96658502,-24.79629000
2.96914502,-24.79629000
2.97170502,-24.79629000
2.97426502,-24.79629000
2.97682502,-24.79629000
2.97938502,-24.79629000
2.98194502,-24.79629000
2.98450502,-24.79629000
2.98706502,-24.79629000
2.98962502,-24.79629000
2.99218502,-24.79629000
2.99474502,-24.79629000
2.99730502,-24.79629000
2.99986502,-24.79629000
3.00242502,-24.79629000
3.00498502,-24.79629000
3.00754502,-24.79629000
3.01010502,-24.79629000
3.01266502,-20.32533000
3.01522502,-24.79629000
3.01778502,-24.79629000
3.02034502,-24.79629000
3.02290502,-24.79629000
3.02546502,-24.79629000
3.02802502,-24.79629000
3.03058502,-24.79629000
3.03314502,-24.79629000
3.03570502,-24.79629000
3.03826502,-24.79629000
3.04082502,-24.79629000
3.04338502,-24.79629000
3.04594502,-24.79629000
3.04850502,-24.79629000
3.05106502,-24.79629000
3.05362502,-24.79629000
3.05618502,-24.79629000
3.05874502,-24.79629000
3.06130502,-24.79629000
3.06386502,-24.79629000
3.06642502,-24.79629000
3.06898502,-24.79629000
3.07154502,-24.79629000
3.07410502,-24.79629000
3.07666502,-24.79629000
3.07922502,-24.79629000
3.08178502,-24.79629000
3.08434502,-24.79629000
3.08690502,-29.26725000
3.08946502,-24.79629000
3.09202502,-24.79629000
3.09458502,-24.79629000
3.09714502,-24.79629000
3.09970502,-24.79629000
3.10226502,-29.26725000
3.10482502,-29.26725000
3.10738502,-29.26725000
3.10994502,-29.26725000
3.11250502,-29.26725000
3.11506502,-29.26725000
3.11762502,-29.26725000
3.12018502,-29.26725000
3.12274502,-29.26725000
3.12530502,-29.26725000
3.12786502,-29.26725000
3.13042502,-29.26725000
3.13298502,-29.26725000
3.13554502,-29.26725000
3.13810502,-29.26725000
3.14066502,-29.26725000
3.14322502,-29.26725000
3.14578502,-29.26725000
3.14834502,-29.26725000
3.15090502,-29.26725000
3.15346502,-29.26725000
3.15602502,-33.73821000
3.15858502,-33.73821000
3.16114502,-33.73821000
3.16370502,-29.26725000
3.16626502,-29.26725000
3.16882502,-33.73821000
3.17138502,-33.73821000
3.17394502,-29.26725000
3.17650502,-29.26725000
3.17906502,-29.26725000
3.18162502,-33.73821000
3.18418502,-33.73821000
3.18674502,-33.73821000
3.18930502,-33.73821000
3.19186502,-33.73821000
3.19442502,-33.73821000
3.19698502,-33.73821000
3.19954502,-33.73821000
3.20210502,-33.73821000
3.20466502,-33.73821000
3.20722502,-33.73821000
3.20978502,-33.73821000
3.21234502,-33.73821000
3.21490502,-33.73821000
3.21746502,-33.73821000
3.22002502,-33.73821000
3.22258502,-33.73821000
3.22514502,-33.73821000
3.22770502,-33.73821000
3.23026502,-33.73821000
3.23282502,-33.73821000
3.23538502,-33.73821000
3.23794502,-33.73821000
3.24050502,-33.73821000
3.24306502,-33.73821000
3.24562502,-38.20917000
3.24818502,-38.20917000
3.25074502,-38.20917000
3.25330502,-33.73821000
3.25586502,-38.20917000
3.25842502,-33.73821000
3.26098502,-33.73821000
3.26354502,-38.20917000
3.26610502,-38.20917000
3.26866502,-38.20917000
3.27122502,-38.20917000
3.27378502,-42.68013000
3.27634502,-42.68013000
3.27890502,-42.68013000
3.28146502,-42.68013000
3.28402502,-42.68013000
3.28658502,-42.68013000
3.28914502,-42.68013000
3.29170502,-42.68013000
3.29426502,-42.68013000
3.29682502,-42.68013000
3.29938502,-42.68013000
3.30194502,-42.68013000
3.30450502,-42.68013000
3.30706502,-42.68013000
3.30962502,-42.68013000
3.31218502,-42.68013000
3.31474502,-47.15109000
3.31730502,-47.15109000
3.31986502,-42.68013000
3.32242502,-47.15109000
3.32498502,-47.15109000
3.32754502,-47.15109000
3.33010502,-47.15109000
3.33266502,-47.15109000
3.33522502,-47.15109000
3.33778502,-51.62206000
3.34034502,-51.62206000
3.34290502,-47.15109000
3.34546502,-51.62206000
3.34802502,-51.62206000
3.35058502,-51.62206000
3.35314502,-51.62206000
3.35570502,-51.62206000
3.35826502,-51.62206000
3.36082502,-51.62206000
3.36338502,-51.62206000
3.36594502,-51.62206000
3.36850502,-51.62206000
3.37106502,-51.62206000
3.37362502,-51.62206000
3.37618502,-51.62206000
3.37874502,-56.09302000
3.38130502,-56.09302000
3.38386502,-56.09302000
3.38642502,-51.62206000
3.38898502,-56.09302000
3.39154502,-56.09302000
3.39410502,-56.09302000
3.39666502,-56.09302000
3.39922502,-60.56398000
3.40178502,-60.56398000
3.40434502,-60.56398000
3.40690502,-60.56398000
3.40946502,-60.56398000
3.41202502,-60.56398000
3.41458502,-60.56398000
3.41714502,-60.56398000
3.41970502,-60.56398000
3.42226502,-60.56398000
3.42482502,-60.56398000
3.42738502,-60.56398000
3.42994502,-60.56398000
3.43250502,-60.56398000
3.43506502,-60.56398000
3.43762502,-60.56398000
3.44018502,-60.56398000
3.44274502,-65.03493000
3.44530502,-60.56398000
3.44786502,-60.56398000
3.45042502,-65.03493000
3.45298502,-65.03493000
3.45554502,-65.03493000
3.45810502,-65.03493000
3.46066502,-65.03493000
3.46322502,-65.03493000
3.46578502,-65.03493000
3.46834502,-65.03493000
3.47090502,-65.03493000
3.47346502,-69.50591000
3.47602502,-65.03493000
3.47858502,-65.03493000
3.48114502,-65.03493000
3.48370502,-69.50591000
3.48626502,-65.03493000
3.48882502,-69.50591000
3.49138502,-65.03493000
3.49394502,-69.50591000
3.49650502,-69.50591000
3.49906502,-69.50591000
3.50162502,-69.50591000
3.50418502,-69.50591000
3.50674502,-69.50591000
3.50930502,-69.50591000
3.51186502,-69.50591000
3.51442502,-69.50591000
3.51698502,-69.50591000
3.51954502,-69.50591000
3.52210502,-69.50591000
3.52466502,-69.50591000
3.52722502,-69.50591000
3.52978502,-69.50591000
3.53234502,-69.50591000
3.53490502,-69.50591000
3.53746502,-69.50591000
3.54002502,-69.50591000
3.54258502,-69.50591000
3.54514502,-69.50591000
3.54770502,-69.50591000
3.55026502,-69.50591000
3.55282502,-69.50591000
3.55538502,-69.50591000
3.55794502,-69.50591000
3.56050502,-73.99212000
3.56306502,-69.50591000
3.56562502,-69.50591000
3.56818502,-73.99212000
3.57074502,-69.50591000
3.57330502,-69.50591000
3.57586502,-69.50591000
3.57842502,-69.50591000
3.58098502,-69.50591000
3.58354502,-69.50591000
3.58610502,-69.50591000
3.58866502,-69.50591000
3.59122502,-69.50591000
3.59378502,-69.50591000
3.59634502,-73.99212000
3.59890502,-69.50591000
3.60146502,-69.50591000
3.60402502,-73.99212000
3.60658502,-69.50591000
3.60914502,-69.50591000
3.61170502,-69.50591000
3.61426502,-73.99212000
3.61682502,-69.50591000
3.61938502,-73.99212000
3.62194502,-73.99212000
3.62450502,-73.99212000
3.62706502,-73.99212000
3.62962502,-73.99212000
3.63218502,-73.99212000
3.63474502,-73.99212000
3.63730502,-73.99212000
3.63986502,-73.99212000
3.64242502,-73.99212000
3.64498502,-73.99212000
3.64754502,-73.99212000
3.65010502,-73.99212000
3.65266502,-73.99212000
3.65522502,-73.99212000
3.65778502,-73.99212000
3.66034502,-73.99212000
3.66290502,-73.99212000
3.66546502,-73.99212000
3.66802502,-73.99212000
3.67058502,-73.99212000
3.67314502,-73.99212000
3.67570502,-73.99212000
3.67826502,-78.46308000
3.68082502,-69.50591000
3.68338502,-73.99212000
3.68594502,-73.99212000
3.68850502,-73.99212000
3.69106502,-73.99212000
3.69362502,-73.99212000
3.69618502,-73.99212000
3.69874502,-73.99212000
3.70130502,-73.99212000
3.70386502,-73.99212000
3.70642502,-73.99212000
3.70898502,-78.46308000
3.71154502,-73.99212000
3.71410502,-73.99212000
3.71666502,-78.46308000
3.71922502,-73.99212000
3.72178502,-78.46308000
3.72434502,-78.46308000
3.72690502,-73.99212000
3.72946502,-73.99212000
3.73202502,-73.99212000
3.73458502,-73.99212000
3.73714502,-73.99212000
3.73970502,-73.99212000
3.74226502,-73.99212000
3.74482502,-69.50591000
3.74738502,-73.99212000
3.74994502,-73.99212000
3.75250502,-73.99212000
3.75506502,-73.99212000
3.75762502,-69.50591000
3.76018502,-73.99212000
3.76274502,-73.99212000
3.76530502,-73.99212000
3.76786502,-73.99212000
3.77042502,-73.99212000
3.77298502,-73.99212000
3.77554502,-73.99212000
3.77810502,-73.99212000
3.78066502,-73.99212000
3.78322502,-73.99212000
3.78578502,-73.99212000
3.78834502,-73.99212000
3.79090502,-73.99212000
3.79346502,-73.99212000
3.79602502,-69.50591000
3.79858502,-73.99212000
3.80114502,-73.99212000
3.80370502,-73.99212000
3.80626502,-73.99212000
3.80882502,-73.99212000
3.81138502,-73.99212000
3.81394502,-73.99212000
3.81650502,-69.50591000
3.81906502,-69.50591000
3.82162502,-69.50591000
3.82418502,-69.50591000
3.82674502,-69.50591000
3.82930502,-69.50591000
3.83186502,-69.50591000
3.83442502,-69.50591000
3.83698502,-73.99212000
3.83954502,-73.99212000
3.84210502,-69.50591000
3.84466502,-73.99212000
3.84722502,-73.99212000
3.84978502,-69.50591000
3.85234502,-69.50591000
3.85490502,-69.50591000
3.85746502,-69.50591000
3.86002502,-69.50591000
3.86258502,-73.99212000
3.86514502,-69.50591000
3.86770502,-69.50591000
3.87026502,-69.50591000
3.87282502,-69.50591000
3.87538502,-69.50591000
3.87794502,-73.99212000
3.88050502,-69.50591000
3.88306502,-69.50591000
3.88562502,-69.50591000
3.88818502,-69.50591000
3.89074502,-69.50591000
3.89330502,-69.50591000
3.89586502,-69.50591000
3.89842502,-69.50591000
3.90098502,-69.50591000
3.90354502,-69.50591000
3.90610502,-69.50591000
3.90866502,-69.50591000
3.91122502,-69.50591000
3.91378502,-69.50591000
3.91634502,-69.50591000
3.91890502,-69.50591000
3.92146502,-69.50591000
3.92402502,-73.99212000
3.92658502,-69.50591000
3.92914502,-69.50591000
3.93170502,-69.50591000
3.93426502,-69.50591000
3.93682502,-69.50591000
3.93938502,-69.50591000
3.94194502,-69.50591000
3.94450502,-69.50591000
3.94706502,-69.50591000
3.94962502,-69.50591000
3.95218502,-69.50591000
3.95474502,-69.50591000
3.95730502,-69.50591000
3.95986502,-69.50591000
3.96242502,-69.50591000
3.96498502,-69.50591000
3.96754502,-69.50591000
3.97010502,-69.50591000
3.97266502,-69.50591000
3.97522502,-69.50591000
3.97778502,-69.50591000
3.98034502,-69.50591000
3.98290502,-69.50591000
3.98546502,-69.50591000
3.98802502,-69.50591000
3.99058502,-69.50591000
3.99314502,-69.50591000
3.99570502,-69.50591000
3.99826502,-69.50591000
4.00082502,-69.50591000
4.00338502,-69.50591000
4.00594502,-69.50591000
4.00850502,-69.50591000
4.01106502,-69.50591000
4.01362502,-69.50591000
4.01618502,-69.50591000
4.01874502,-69.50591000
4.02130502,-69.50591000
4.02386502,-69.50591000
4.02642502,-69.50591000
4.02898502,-69.50591000
4.03154502,-69.50591000
4.03410502,-69.50591000
4.03666502,-69.50591000
4.03922502,-69.50591000
4.04178502,-69.50591000
4.04434502,-69.50591000
4.04690502,-69.50591000
4.04946502,-69.50591000
4.05202502,-69.50591000
4.05458502,-69.50591000
4.05714502,-69.50591000
4.05970502,-69.50591000
4.06226502,-69.50591000
4.06482502,-69.50591000
4.06738502,-69.50591000
4.06994502,-69.50591000
4.07250502,-69.50591000
4.07506502,-69.50591000
4.07762502,-69.50591000
4.08018502,-69.50591000
4.08274502,-69.50591000
4.08530502,-69.50591000
4.08786502,-69.50591000
4.09042502,-69.50591000
4.09298502,-69.50591000
4.09554502,-69.50591000
4.09810502,-69.50591000
4.10066502,-69.50591000
4.10322502,-69.50591000
4.10578502,-69.50591000
4.10834502,-69.50591000
4.11090502,-69.50591000
4.11346502,-69.50591000
4.11602502,-69.50591000
4.11858502,-69.50591000
4.12114502,-69.50591000
4.12370502,-69.50591000
4.12626502,-69.50591000
4.12882502,-69.50591000
4.13138502,-69.50591000
4.13394502,-69.50591000
4.13650502,-69.50591000
4.13906502,-69.50591000
4.14162502,-69.50591000
4.14418502,-69.50591000
4.14674502,-69.50591000
4.14930502,-69.50591000
4.15186502,-69.50591000
4.15442502,-69.50591000
4.15698502,-69.50591000
4.15954502,-69.50591000
4.16210502,-69.50591000
4.16466502,-69.50591000
4.16722502,-69.50591000
4.16978502,-69.50591000
4.17234502,-69.50591000
4.17490502,-69.50591000
4.17746502,-69.50591000
4.18002502,-69.50591000
4.18258502,-69.50591000
4.18514502,-65.03493000
4.18770502,-69.50591000
4.19026502,-69.50591000
4.19282502,-69.50591000
4.19538502,-69.50591000
4.19794502,-69.50591000
4.20050502,-69.50591000
4.20306502,-69.50591000
4.20562502,-69.50591000
4.20818502,-69.50591000
4.21074502,-69.50591000
4.21330502,-69.50591000
4.21586502,-69.50591000
4.21842502,-69.50591000
4.22098502,-69.50591000
4.22354502,-69.50591000
4.22610502,-69.50591000
4.22866502,-69.50591000
4.23122502,-69.50591000
4.23378502,-69.50591000
4.23634501,-69.50591000
4.23890501,-69.50591000
4.24146501,-69.50591000
4.24402501,-69.50591000
4.24658501,-69.50591000
4.24914501,-69.50591000
4.25170501,-69.50591000
4.25426501,-69.50591000
4.25682501,-69.50591000
4.25938501,-69.50591000
4.26194501,-69.50591000
4.26450501,-69.50591000
4.26706501,-69.50591000
4.26962501,-69.50591000
4.27218501,-69.50591000
4.27474501,-69.50591000
4.27730501,-69.50591000
4.27986501,-69.50591000
4.28242501,-69.50591000
4.28498501,-69.50591000
4.28754501,-69.50591000
4.29010501,-69.50591000
4.29266501,-69.50591000
4.29522501,-69.50591000
4.29778501,-69.50591000
4.30034501,-69.50591000
4.30290501,-69.50591000
4.30546501,-69.50591000
4.30802501,-69.50591000
4.31058501,-69.50591000
4.31314501,-69.50591000
4.31570501,-69.50591000
4.31826501,-69.50591000
4.32082501,-69.50591000
4.32338501,-69.50591000
4.32594501,-69.50591000
4.32850501,-69.50591000
4.33106501,-69.50591000
4.33362501,-69.50591000
4.33618501,-69.50591000
4.33874501,-69.50591000
4.34130501,-69.50591000
4.34386501,-69.50591000
4.34642501,-69.50591000
4.34898501,-69.50591000
4.35154501,-69.50591000
4.35410501,-69.50591000
4.35666501,-69.50591000
4.35922501,-69.50591000
4.36178501,-69.50591000
4.36434501,-69.50591000
4.36690501,-69.50591000
4.36946501,-69.50591000
4.37202501,-69.50591000
4.37458501,-69.50591000
4.37714501,-69.50591000
4.37970501,-69.50591000
4.38226501,-69.50591000
4.38482501,-69.50591000
4.38738501,-69.50591000
4.38994501,-69.50591000
4.39250501,-69.50591000
4.39506501,-69.50591000
4.39762501,-69.50591000
4.40018501,-69.50591000
4.40274501,-69.50591000
4.40530501,-69.50591000
4.40786501,-69.50591000
4.41042501,-69.50591000
4.41298501,-69.50591000
4.41554501,-69.50591000
4.41810501,-69.50591000
4.42066501,-69.50591000
4.42322501,-69.50591000
4.42578501,-69.50591000
4.42834501,-69.50591000
4.43090501,-69.50591000
4.43346501,-69.50591000
4.43602501,-69.50591000
4.43858501,-69.50591000
4.44114501,-69.50591000
4.44370501,-69.50591000
4.44626501,-69.50591000
4.44882501,-69.50591000
4.45138501,-69.50591000
4.45394501,-69.50591000
4.45650501,-69.50591000
4.45906501,-69.50591000
4.46162501,-69.50591000
4.46418501,-69.50591000
4.46674501,-69.50591000
4.46930501,-69.50591000
4.47186501,-69.50591000
4.47442501,-69.50591000
4.47698501,-69.50591000
4.47954501,-69.50591000
4.48210501,-69.50591000
4.48466501,-69.50591000
4.48722501,-69.50591000
4.48978501,-69.50591000
4.49234501,-69.50591000
4.49490501,-69.50591000
4.49746501,-69.50591000
4.50002501,-69.50591000
4.50258501,-69.50591000
4.50514501,-69.50591000
4.50770501,-69.50591000
4.51026501,-69.50591000
4.51282501,-69.50591000
4.51538501,-69.50591000
4.51794501,-69.50591000
4.52050501,-69.50591000
4.52306501,-69.50591000
4.52562501,-69.50591000
4.52818501,-69.50591000
4.53074501,-69.50591000
4.53330501,-69.50591000
4.53586501,-69.50591000
4.53842501,-69.50591000
4.54098501,-69.50591000
4.54354501,-69.50591000
4.54610501,-69.50591000
4.54866501,-69.50591000
4.55122501,-69.50591000
4.55378501,-69.50591000
4.55634501,-69.50591000
4.55890501,-69.50591000
4.56146501,-69.50591000
4.56402501,-69.50591000
4.56658501,-69.50591000
4.56914501,-69.50591000
4.57170501,-69.50591000
4.57426501,-69.50591000
4.57682501,-69.50591000
4.57938501,-69.50591000
4.58194501,-69.50591000
4.58450501,-69.50591000
4.58706501,-69.50591000
4.58962501,-69.50591000
4.59218501,-69.50591000
4.59474501,-69.50591000
4.59730501,-69.50591000
4.59986501,-69.50591000
4.60242501,-69.50591000
4.60498501,-69.50591000
4.60754501,-69.50591000
4.61010501,-69.50591000
4.61266501,-69.50591000
4.61522501,-69.50591000
4.61778501,-69.50591000
4.62034501,-69.50591000
4.62290501,-69.50591000
4.62546501,-69.50591000
4.62802501,-69.50591000
4.63058501,-69.50591000
4.63314501,-69.50591000
4.63570501,-69.50591000
4.63826501,-69.50591000
4.64082501,-69.50591000
4.64338501,-69.50591000
4.64594501,-69.50591000
4.64850501,-69.50591000
4.65106501,-69.50591000
4.65362501,-69.50591000
4.65618501,-69.50591000
4.65874501,-69.50591000
4.66130501,-69.50591000
4.66386501,-69.50591000
4.66642501,-69.50591000
4.66898501,-69.50591000
4.67154501,-69.50591000
4.67410501,-69.50591000
4.67666501,-69.50591000
4.67922501,-69.50591000
4.68178501,-69.50591000
4.68434501,-69.50591000
4.68690501,-69.50591000
4.68946501,-69.50591000
4.69202501,-69.50591000
4.69458501,-69.50591000
4.69714501,-69.50591000
4.69970501,-69.50591000
4.70226501,-69.50591000
4.70482501,-69.50591000
4.70738501,-69.50591000
4.70994501,-69.50591000
4.71250501,-69.50591000
4.71506501,-69.50591000
4.71762501,-69.50591000
4.72018501,-69.50591000
4.72274501,-69.50591000
4.72530501,-69.50591000
4.72786501,-69.50591000
4.73042501,-69.50591000
4.73298501,-69.50591000
4.73554501,-69.50591000
4.73810501,-69.50591000
4.74066501,-69.50591000
4.74322501,-69.50591000
4.74578501,-69.50591000
4.74834501,-69.50591000
4.75090501,-69.50591000
4.75346501,-69.50591000
4.75602501,-69.50591000
4.75858501,-69.50591000
4.76114501,-69.50591000
4.76370501,-69.50591000
4.76626501,-69.50591000
4.76882501,-69.50591000
4.77138501,-69.50591000
4.77394501,-69.50591000
4.77650501,-69.50591000
4.77906501,-69.50591000
4.78162501,-69.50591000
4.78418501,-69.50591000
4.78674501,-69.50591000
4.78930501,-69.50591000
4.79186501,-69.50591000
4.79442501,-69.50591000
4.79698501,-69.50591000
4.79954501,-69.50591000
4.80210501,-69.50591000
4.80466501,-69.50591000
4.80722501,-69.50591000
4.80978501,-69.50591000
4.81234501,-69.50591000
4.81490501,-69.50591000
4.81746501,-69.50591000
4.82002501,-69.50591000
4.82258501,-69.50591000
4.82514501,-69.50591000
4.82770501,-69.50591000
4.83026501,-69.50591000
4.83282501,-69.50591000
4.83538501,-69.50591000
4.83794501,-69.50591000
4.84050501,-69.50591000
4.84306501,-69.50591000
4.84562501,-69.50591000
4.84818501,-69.50591000
4.85074501,-69.50591000
4.85330501,-69.50591000
4.85586501,-69.50591000
4.85842501,-69.50591000
4.86098501,-69.50591000
4.86354501,-69.50591000
4.86610501,-69.50591000
4.86866501,-69.50591000
4.87122501,-69.50591000
4.87378501,-69.50591000
4.87634501,-69.50591000
4.87890501,-69.50591000
4.88146501,-69.50591000
4.88402501,-69.50591000
4.88658501,-69.50591000
4.88914501,-69.50591000
4.89170501,-69.50591000
4.89426501,-69.50591000
4.89682501,-69.50591000
4.89938501,-69.50591000
4.90194501,-69.50591000
4.90450501,-69.50591000
4.90706501,-69.50591000
4.90962501,-69.50591000
4.91218501,-69.50591000
4.91474501,-69.50591000
4.91730501,-69.50591000
4.91986501,-69.50591000
4.92242501,-69.50591000
4.92498501,-69.50591000
4.92754501,-69.50591000
4.93010501,-69.50591000
4.93266501,-69.50591000
4.93522501,-69.50591000
4.93778501,-69.50591000
4.94034501,-69.50591000
4.94290501,-69.50591000
4.94546501,-69.50591000
4.94802501,-69.50591000
4.95058501,-69.50591000
4.95314501,-69.50591000
4.95570501,-69.50591000
4.95826501,-69.50591000
4.96082501,-69.50591000
4.96338501,-69.50591000
4.96594501,-69.50591000
4.96850501,-69.50591000
4.97106501,-69.50591000
4.97362501,-69.50591000
4.97618501,-69.50591000
4.97874501,-69.50591000
4.98130501,-69.50591000
4.98386501,-73.99212000
4.98642501,-69.50591000
4.98898501,-69.50591000
4.99154501,-69.50591000
4.99410501,-69.50591000
4.99666501,-69.50591000
4.99922501,-69.50591000
5.00178501,-69.50591000
5.00434501,-69.50591000
5.00690501,-69.50591000
5.00946501,-73.99212000
5.01202501,-69.50591000
5.01458501,-69.50591000
5.01714501,-69.50591000
5.01970501,-69.50591000
5.02226501,-69.50591000
5.02482501,-69.50591000
5.02738501,-69.50591000
5.02994501,-69.50591000
5.03250501,-69.50591000
5.03506501,-69.50591000
5.03762501,-69.50591000
5.04018501,-73.99212000
5.04274501,-69.50591000
5.04530501,-69.50591000
5.04786501,-69.50591000
5.05042501,-69.50591000
5.05298501,-73.99212000
5.05554501,-69.50591000
5.05810501,-69.50591000
5.06066501,-73.99212000
5.06322501,-69.50591000
5.06578501,-69.50591000
5.06834501,-69.50591000
5.07090501,-73.99212000
5.07346501,-69.50591000
5.07602501,-69.50591000
5.07858501,-69.50591000
5.08114501,-73.99212000
5.08370501,-69.50591000
5.08626501,-69.50591000
5.08882501,-69.50591000
5.09138501,-73.99212000
5.09394501,-69.50591000
5.09650501,-73.99212000
5.09906501,-69.50591000
5.10162501,-69.50591000
5.10418501,-69.50591000
5.10674501,-73.99212000
5.10930501,-69.50591000
5.11186501,-69.50591000
5.11442501,-69.50591000
5.11698501,-69.50591000
5.11954501,-69.50591000
5.12210501,-69.50591000
5.12466501,-69.50591000
5.12722501,-69.50591000
5.12978501,-69.50591000
5.13234501,-73.99212000
5.13490501,-69.50591000
5.13746501,-69.50591000
5.14002501,-73.99212000
5.14258501,-73.99212000
5.14514501,-69.50591000
5.14770501,-69.50591000
5.15026501,-69.50591000
5.15282501,-69.50591000
5.15538501,-69.50591000
5.15794501,-73.99212000
5.16050501,-69.50591000
5.16306501,-73.99212000
5.16562501,-69.50591000
5.16818501,-73.99212000
5.17074501,-69.50591000
5.17330501,-69.50591000
5.17586501,-69.50591000
5.17842501,-73.99212000
5.18098501,-69.50591000
5.18354501,-73.99212000
5.18610501,-69.50591000
5.18866501,-73.99212000
5.19122501,-69.50591000
5.19378501,-69.50591000
5.19634501,-69.50591000
5.19890501,-73.99212000
5.20146501,-69.50591000
5.20402501,-69.50591000
5.20658501,-69.50591000
5.20914501,-69.50591000
5.21170501,-73.99212000
5.21426501,-73.99212000
5.21682501,-73.99212000
5.21938501,-73.99212000
5.22194501,-69.50591000
5.22450501,-69.50591000
5.22706501,-69.50591000
5.22962501,-73.99212000
5.23218501,-69.50591000
5.23474501,-69.50591000
5.23730501,-69.50591000
5.23986501,-69.50591000
5.24242501,-69.50591000
5.24498501,-69.50591000
5.24754501,-69.50591000
5.25010501,-73.99212000
5.25266501,-73.99212000
5.25522501,-69.50591000
5.25778501,-69.50591000
5.26034501,-73.99212000
5.26290501,-69.50591000
5.26546501,-69.50591000
5.26802501,-69.50591000
5.27058501,-73.99212000
5.27314501,-73.99212000
5.27570501,-69.50591000
5.27826501,-69.50591000
5.28082501,-73.99212000
5.28338501,-73.99212000
5.28594501,-69.50591000
5.28850501,-73.99212000
5.29106501,-73.99212000
5.29362501,-73.99212000
5.29618501,-69.50591000
5.29874501,-69.50591000
5.30130501,-69.50591000
5.30386501,-69.50591000
5.30642501,-73.99212000
5.30898501,-69.50591000
5.31154501,-73.99212000
5.31410501,-73.99212000
5.31666501,-73.99212000
5.31922501,-69.50591000
5.32178501,-73.99212000
5.32434501,-73.99212000
5.32690501,-69.50591000
5.32946501,-73.99212000
5.33202501,-73.99212000
5.33458501,-73.99212000
5.33714501,-69.50591000
5.33970501,-73.99212000
5.34226501,-73.99212000
5.34482501,-69.50591000
5.34738501,-69.50591000
5.34994501,-73.99212000
5.35250501,-73.99212000
5.35506501,-73.99212000
5.35762501,-73.99212000
5.36018501,-73.99212000
5.36274501,-73.99212000
5.36530501,-69.50591000
5.36786501,-73.99212000
5.37042501,-69.50591000
5.37298501,-69.50591000
5.37554501,-73.99212000
5.37810501,-73.99212000
5.38066501,-73.99212000
5.38322501,-73.99212000
5.38578501,-69.50591000
5.38834501,-73.99212000
5.39090501,-73.99212000
5.39346501,-73.99212000
5.39602501,-73.99212000
5.39858501,-73.99212000
5.40114501,-69.50591000
5.40370501,-73.99212000
5.40626501,-73.99212000
5.40882501,-73.99212000
5.41138501,-73.99212000
5.41394501,-73.99212000
5.41650501,-73.99212000
5.41906501,-73.99212000
5.42162501,-73.99212000
5.42418501,-73.99212000
5.42674501,-73.99212000
5.42930501,-73.99212000
5.43186501,-73.99212000
5.43442501,-73.99212000
5.43698501,-73.99212000
5.43954501,-73.99212000
5.44210501,-73.99212000
5.44466501,-73.99212000
5.44722501,-73.99212000
5.44978501,-73.99212000
5.45234501,-73.99212000
5.45490501,-73.99212000
5.45746501,-69.50591000
5.46002501,-73.99212000
5.46258501,-73.99212000
5.46514501,-69.50591000
5.46770501,-69.50591000
5.47026501,-73.99212000
5.47282501,-73.99212000
5.47538501,-73.99212000
5.47794501,-73.99212000
5.48050501,-73.99212000
5.48306501,-73.99212000
5.48562501,-69.50591000
5.48818501,-73.99212000
5.49074501,-73.99212000
5.49330501,-73.99212000
5.49586501,-73.99212000
5.49842501,-73.99212000
5.50098501,-69.50591000
5.50354501,-73.99212000
5.50610501,-73.99212000
5.50866501,-69.50591000
5.51122501,-73.99212000
5.51378501,-73.99212000
5.51634501,-73.99212000
5.51890501,-73.99212000
5.52146501,-69.50591000
5.52402501,-73.99212000
5.52658501,-73.99212000
5.52914501,-69.50591000
5.53170501,-73.99212000
5.53426501,-73.99212000
5.53682501,-69.50591000
5.53938501,-69.50591000
5.54194501,-69.50591000
5.54450501,-73.99212000
5.54706501,-73.99212000
5.54962501,-73.99212000
5.55218501,-69.50591000
5.55474501,-69.50591000
5.55730501,-69.50591000
5.55986501,-73.99212000
5.56242501,-73.99212000
5.56498501,-69.50591000
5.56754501,-73.99212000
5.57010501,-73.99212000
5.57266501,-69.50591000
5.57522501,-69.50591000
5.57778501,-73.99212000
5.58034501,-73.99212000
5.58290501,-69.50591000
5.58546501,-69.50591000
5.58802501,-73.99212000
5.59058501,-73.99212000
5.59314501,-69.50591000
5.59570501,-69.50591000
5.59826501,-73.99212000
5.60082501,-73.99212000
5.60338501,-73.99212000
5.60594501,-69.50591000
5.60850501,-73.99212000
5.61106501,-73.99212000
5.61362501,-73.99212000
5.61618501,-69.50591000
5.61874501,-73.99212000
5.62130501,-73.99212000
5.62386501,-69.50591000
5.62642501,-69.50591000
5.62898501,-69.50591000
5.63154501,-73.99212000
5.63410501,-69.50591000
5.63666501,-69.50591000
5.63922501,-69.50591000
5.64178501,-69.50591000
5.64434501,-69.50591000
5.64690501,-69.50591000
5.64946501,-69.50591000
5.65202501,-69.50591000
5.65458501,-69.50591000
5.65714501,-69.50591000
5.65970501,-69.50591000
5.66226501,-69.50591000
5.66482501,-69.50591000
5.66738501,-69.50591000
5.66994501,-73.99212000
5.67250501,-73.99212000
5.67506501,-69.50591000
5.67762501,-69.50591000
5.68018501,-73.99212000
5.68274501,-73.99212000
5.68530501,-69.50591000
5.68786501,-73.99212000
5.69042501,-73.99212000
5.69298501,-69.50591000
5.69554501,-69.50591000
5.69810501,-73.99212000
5.70066501,-73.99212000
5.70322501,-69.50591000
5.70578501,-69.50591000
5.70834501,-73.99212000
5.71090501,-73.99212000
5.71346501,-69.50591000
5.71602501,-73.99212000
5.71858501,-73.99212000
5.72114501,-73.99212000
5.72370501,-73.99212000
5.72626501,-73.99212000
5.72882501,-73.99212000
5.73138501,-69.50591000
5.73394501,-73.99212000
5.73650501,-73.99212000
5.73906501,-69.50591000
5.74162501,-73.99212000
5.74418501,-73.99212000
5.74674501,-73.99212000
5.74930501,-73.99212000
5.75186501,-73.99212000
5.75442501,-73.99212000
5.75698501,-73.99212000
5.75954501,-73.99212000
5.76210501,-73.99212000
5.76466501,-73.99212000
5.76722501,-73.99212000
5.76978501,-78.46308000
5.77234501,-73.99212000
5.77490501,-73.99212000
5.77746501,-73.99212000
5.78002501,-73.99212000
5.78258501,-73.99212000
5.78514501,-78.46308000
5.78770501,-78.46308000
5.79026501,-78.46308000
5.79282501,-78.46308000
5.79538501,-73.99212000
5.79794501,-73.99212000
5.80050501,-73.99212000
5.80306501,-73.99212000
5.80562501,-73.99212000
5.80818501,-78.46308000
5.81074501,-78.46308000
5.81330501,-78.46308000
5.81586501,-78.46308000
5.81842501,-78.46308000
5.82098501,-73.99212000
5.82354501,-73.99212000
5.82610501,-73.99212000
5.82866501,-78.46308000
5.83122501,-73.99212000
5.83378501,-73.99212000
5.83634501,-73.99212000
5.83890501,-73.99212000
5.84146501,-73.99212000
5.84402501,-73.99212000
5.84658501,-78.46308000
5.84914501,-73.99212000
5.85170501,-73.99212000
5.85426501,-73.99212000
5.85682501,-73.99212000
5.85938501,-73.99212000
5.86194501,-73.99212000
5.86450501,-73.99212000
5.86706501,-73.99212000
5.86962501,-73.99212000
5.87218501,-73.99212000
5.87474501,-73.99212000
5.87730501,-73.99212000
5.87986500,-69.50591000
5.88242500,-73.99212000
5.88498500,-69.50591000
5.88754500,-69.50591000
5.89010500,-69.50591000
5.89266500,-69.50591000
5.89522500,-69.50591000
5.89778500,-69.50591000
5.90034500,-69.50591000
5.90290500,-73.99212000
5.90546500,-73.99212000
5.90802500,-69.50591000
5.91058500,-69.50591000
5.91314500,-69.50591000
5.91570500,-69.50591000
5.91826500,-69.50591000
5.92082500,-69.50591000
5.92338500,-69.50591000
5.92594500,-69.50591000
5.92850500,-69.50591000
5.93106500,-69.50591000
5.93362500,-69.50591000
5.93618500,-69.50591000
5.93874500,-69.50591000
5.94130500,-69.50591000
5.94386500,-69.50591000
5.94642500,-69.50591000
5.94898500,-69.50591000
5.95154500,-69.50591000
5.95410500,-69.50591000
5.95666500,-69.50591000
5.95922500,-69.50591000
5.96178500,-69.50591000
5.96434500,-69.50591000
5.96690500,-69.50591000
5.96946500,-69.50591000
5.97202500,-69.50591000
5.97458500,-69.50591000
5.97714500,-69.50591000
5.97970500,-69.50591000
5.98226500,-69.50591000
5.98482500,-69.50591000
5.98738500,-69.50591000
5.98994500,-69.50591000
5.99250500,-69.50591000
5.99506500,-69.50591000
5.99762500,-69.50591000
6.00018500,-69.50591000
6.00274500,-69.50591000
6.00530500,-69.50591000
6.00786500,-69.50591000
6.01042500,-69.50591000
6.01298500,-69.50591000
6.01554500,-69.50591000
6.01810500,-69.50591000
6.02066500,-69.50591000
6.02322500,-69.50591000
6.02578500,-69.50591000
6.02834500,-69.50591000
6.03090500,-69.50591000
6.03346500,-69.50591000
6.03602500,-69.50591000
6.03858500,-69.50591000
6.04114500,-69.50591000
6.04370500,-69.50591000
6.04626500,-69.50591000
6.04882500,-69.50591000
6.05138500,-69.50591000
6.05394500,-69.50591000
6.05650500,-69.50591000
6.05906500,-69.50591000
6.06162500,-69.50591000
6.06418500,-69.50591000
6.06674500,-69.50591000
6.06930500,-69.50591000
6.07186500,-69.50591000
6.07442500,-69.50591000
6.07698500,-69.50591000
6.07954500,-69.50591000
6.08210500,-69.50591000
6.08466500,-69.50591000
6.08722500,-69.50591000
6.08978500,-69.50591000
6.09234500,-69.50591000
6.09490500,-69.50591000
6.09746500,-69.50591000
6.10002500,-69.50591000
6.10258500,-69.50591000
6.10514500,-69.50591000
6.10770500,-69.50591000
6.11026500,-69.50591000
6.11282500,-69.50591000
6.11538500,-69.50591000
6.11794500,-69.50591000
6.12050500,-69.50591000
6.12306500,-69.50591000
6.12562500,-73.99212000
6.12818500,-69.50591000
6.13074500,-69.50591000
6.13330500,-69.50591000
6.13586500,-69.50591000
6.13842500,-69.50591000
6.14098500,-69.50591000
6.14354500,-69.50591000
6.14610500,-69.50591000
6.14866500,-69.50591000
6.15122500,-73.99212000
6.15378500,-69.50591000
6.15634500,-69.50591000
6.15890500,-73.99212000
6.16146500,-69.50591000
6.16402500,-73.99212000
6.16658500,-73.99212000
6.16914500,-73.99212000
6.17170500,-73.99212000
6.17426500,-73.99212000
6.17682500,-73.99212000
6.17938500,-69.50591000
6.18194500,-73.99212000
6.18450500,-73.99212000
6.18706500,-69.50591000
6.18962500,-73.99212000
6.19218500,-73.99212000
6.19474500,-73.99212000
6.19730500,-73.99212000
6.19986500,-69.50591000
6.20242500,-73.99212000
6.20498500,-73.99212000
6.20754500,-73.99212000
6.21010500,-69.50591000
6.21266500,-73.99212000
6.21522500,-73.99212000
6.21778500,-73.99212000
6.22034500,-69.50591000
6.22290500,-73.99212000
6.22546500,-69.50591000
6.22802500,-73.99212000
6.23058500,-73.99212000
6.23314500,-73.99212000
6.23570500,-73.99212000
6.23826500,-73.99212000
6.24082500,-69.50591000
6.24338500,-69.50591000
6.24594500,-73.99212000
6.24850500,-73.99212000
6.25106500,-73.99212000
6.25362500,-69.50591000
6.25618500,-73.99212000
6.25874500,-69.50591000
6.26130500,-73.99212000
6.26386500,-73.99212000
6.26642500,-73.99212000
6.26898500,-69.50591000
6.27154500,-73.99212000
6.27410500,-73.99212000
6.27666500,-73.99212000
6.27922500,-73.99212000
6.28178500,-73.99212000
6.28434500,-73.99212000
6.28690500,-73.99212000
6.28946500,-73.99212000
6.29202500,-73.99212000
6.29458500,-73.99212000
6.29714500,-73.99212000
6.29970500,-69.50591000
6.30226500,-69.50591000
6.30482500,-73.99212000
6.30738500,-73.99212000
6.30994500,-73.99212000
6.31250500,-73.99212000
6.31506500,-69.50591000
6.31762500,-73.99212000
6.32018500,-69.50591000
6.32274500,-69.50591000
6.32530500,-73.99212000
6.32786500,-73.99212000
6.33042500,-69.50591000
6.33298500,-69.50591000
6.33554500,-69.50591000
6.33810500,-73.99212000
6.34066500,-73.99212000
6.34322500,-69.50591000
6.34578500,-73.99212000
6.34834500,-73.99212000
6.35090500,-73.99212000
6.35346500,-69.50591000
6.35602500,-73.99212000
6.35858500,-69.50591000
6.36114500,-73.99212000
6.36370500,-69.50591000
6.36626500,-73.99212000
6.36882500,-69.50591000
6.37138500,-69.50591000
6.37394500,-69.50591000
6.37650500,-73.99212000
6.37906500,-73.99212000
6.38162500,-69.50591000
6.38418500,-73.99212000
6.38674500,-69.50591000
6.38930500,-73.99212000
6.39186500,-69.50591000
6.39442500,-69.50591000
6.39698500,-73.99212000
6.39954500,-69.50591000
6.40210500,-73.99212000
6.40466500,-73.99212000
6.40722500,-73.99212000
6.40978500,-69.50591000
6.41234500,-73.99212000
6.41490500,-73.99212000
6.41746500,-69.50591000
6.42002500,-73.99212000
6.42258500,-73.99212000
6.42514500,-73.99212000
6.42770500,-73.99212000
6.43026500,-69.50591000
6.43282500,-69.50591000
6.43538500,-69.50591000
6.43794500,-69.50591000
6.44050500,-73.99212000
6.44306500,-73.99212000
6.44562500,-73.99212000
6.44818500,-73.99212000
6.45074500,-73.99212000
6.45330500,-73.99212000
6.45586500,-69.50591000
6.45842500,-69.50591000
6.46098500,-69.50591000
6.46354500,-69.50591000
6.46610500,-73.99212000
6.46866500,-69.50591000
6.47122500,-73.99212000
6.47378500,-69.50591000
6.47634500,-73.99212000
6.47890500,-69.50591000
6.48146500,-73.99212000
6.48402500,-73.99212000
6.48658500,-69.50591000
6.48914500,-69.50591000
6.49170500,-69.50591000
6.49426500,-73.99212000
6.49682500,-73.99212000
6.49938500,-73.99212000
6.50194500,-73.99212000
6.50450500,-73.99212000
6.50706500,-69.50591000
6.50962500,-69.50591000
6.51218500,-69.50591000
6.51474500,-69.50591000
6.51730500,-73.99212000
6.51986500,-73.99212000
6.52242500,-69.50591000
6.52498500,-69.50591000
6.52754500,-73.99212000
6.53010500,-69.50591000
6.53266500,-69.50591000
6.53522500,-69.50591000
6.53778500,-73.99212000
6.54034500,-69.50591000
6.54290500,-69.50591000
6.54546500,-69.50591000
6.54802500,-69.50591000
6.55058500,-69.50591000
6.55314500,-73.99212000
6.55570500,-69.50591000
6.55826500,-69.50591000
6.56082500,-69.50591000
6.56338500,-69.50591000
6.56594500,-69.50591000
6.56850500,-69.50591000
6.57106500,-69.50591000
6.57362500,-69.50591000
6.57618500,-69.50591000
6.57874500,-69.50591000
6.58130500,-69.50591000
6.58386500,-69.50591000
6.58642500,-69.50591000
6.58898500,-69.50591000
6.59154500,-69.50591000
6.59410500,-69.50591000
6.59666500,-69.50591000
6.59922500,-69.50591000
6.60178500,-73.99212000
6.60434500,-69.50591000
6.60690500,-69.50591000
6.60946500,-69.50591000
6.61202500,-69.50591000
6.61458500,-69.50591000
6.61714500,-69.50591000
6.61970500,-69.50591000
6.62226500,-69.50591000
6.62482500,-69.50591000
6.62738500,-69.50591000
6.62994500,-69.50591000
6.63250500,-69.50591000
6.63506500,-69.50591000
6.63762500,-69.50591000
6.64018500,-69.50591000
6.64274500,-69.50591000
6.64530500,-69.50591000
6.64786500,-69.50591000
6.65042500,-69.50591000
6.65298500,-69.50591000
6.65554500,-69.50591000
6.65810500,-69.50591000
6.66066500,-69.50591000
6.66322500,-69.50591000
6.66578500,-69.50591000
6.66834500,-69.50591000
6.67090500,-69.50591000
6.67346500,-69.50591000
6.67602500,-69.50591000
6.67858500,-69.50591000
6.68114500,-69.50591000
6.68370500,-69.50591000
6.68626500,-69.50591000
6.68882500,-69.50591000
6.69138500,-69.50591000
6.69394500,-69.50591000
6.69650500,-73.99212000
6.69906500,-69.50591000
6.70162500,-69.50591000
6.70418500,-69.50591000
6.70674500,-73.99212000
6.70930500,-69.50591000
6.71186500,-73.99212000
6.71442500,-73.99212000
6.71698500,-73.99212000
6.71954500,-73.99212000
6.72210500,-69.50591000
6.72466500,-69.50591000
6.72722500,-73.99212000
6.72978500,-73.99212000
6.73234500,-69.50591000
6.73490500,-73.99212000
6.73746500,-73.99212000
6.74002500,-69.50591000
6.74258500,-73.99212000
6.74514500,-69.50591000
6.74770500,-73.99212000
6.75026500,-73.99212000
6.75282500,-73.99212000
6.75538500,-78.46308000
6.75794500,-73.99212000
6.76050500,-78.46308000
6.76306500,-73.99212000
6.76562500,-73.99212000
6.76818500,-73.99212000
6.77074500,-78.46308000
6.77330500,-73.99212000
6.77586500,-78.46308000
6.77842500,-78.46308000
6.78098500,-78.46308000
6.78354500,-78.46308000
6.78610500,-78.46308000
6.78866500,-78.46308000
6.79122500,-78.46308000
6.79378500,-78.46308000
6.79634500,-78.46308000
6.79890500,-78.46308000
6.80146500,-78.46308000
6.80402500,-78.46308000
6.80658500,-78.46308000
6.80914500,-78.46308000
6.81170500,-78.46308000
6.81426500,-78.46308000
6.81682500,-78.46308000
6.81938500,-78.46308000
6.82194500,-78.46308000
6.82450500,-78.46308000
6.82706500,-78.46308000
6.82962500,-78.46308000
6.83218500,-78.46308000
6.83474500,-78.46308000
6.83730500,-78.46308000
6.83986500,-78.46308000
6.84242500,-78.46308000
6.84498500,-78.46308000
6.84754500,-78.46308000
6.85010500,-78.46308000
6.85266500,-78.46308000
6.85522500,-78.46308000
6.85778500,-78.46308000
6.86034500,-82.93404000
6.86290500,-82.93404000
6.86546500,-82.93404000
6.86802500,-82.93404000
6.87058500,-82.93404000
6.87314500,-87.40501000
6.87570500,-82.93404000
6.87826500,-82.93404000
6.88082500,-82.93404000
6.88338500,-82.93404000
6.88594500,-82.93404000
6.88850500,-82.93404000
6.89106500,-82.93404000
6.89362500,-87.40501000
6.89618500,-87.40501000
6.89874500,-87.40501000
6.90130500,-87.40501000
6.90386500,-87.40501000
6.90642500,-87.40501000
6.90898500,-87.40501000
6.91154500,-87.40501000
6.91410500,-87.40501000
6.91666500,-87.40501000
6.91922500,-87.40501000
6.92178500,-87.40501000
6.92434500,-87.40501000
6.92690500,-91.87596000
6.92946500,-87.40501000
6.93202500,-87.40501000
6.93458500,-91.87596000
6.93714500,-91.87596000
6.93970500,-96.34693000
6.94226500,-96.34693000
6.94482500,-96.34693000
6.94738500,-96.34693000
6.94994500,-96.34693000
6.95250500,-96.34693000
6.95506500,-96.34693000
6.95762500,-96.34693000
6.96018500,-96.34693000
6.96274500,-96.34693000
6.96530500,-96.34693000
6.96786500,-96.34693000
6.97042500,-96.34693000
6.97298500,-100.81790000
6.97554500,-100.81790000
6.97810500,-100.81790000
6.98066500,-100.81790000
6.98322500,-100.81790000
6.98578500,-100.81790000
6.98834500,-100.81790000
6.99090500,-100.81790000
6.99346500,-105.28880000
6.99602500,-105.28880000
6.99858500,-105.28880000
7.00114500,-105.28880000
7.00370500,-105.28880000
7.00626500,-105.28880000
7.00882500,-105.28880000
7.01138500,-105.28880000
7.01394500,-105.28880000
7.01650500,-105.28880000
7.01906500,-105.28880000
7.02162500,-105.28880000
7.02418500,-105.28880000
7.02674500,-109.75980000
7.02930500,-109.75980000
7.03186500,-109.75980000
7.03442500,-105.28880000
7.03698500,-105.28880000
7.03954500,-109.75980000
7.04210500,-114.23080000
7.04466500,-109.75980000
7.04722500,-109.75980000
7.04978500,-114.23080000
7.05234500,-109.75980000
7.05490500,-114.23080000
7.05746500,-114.23080000
7.06002500,-114.23080000
7.06258500,-114.23080000
7.06514500,-114.23080000
7.06770500,-114.23080000
7.07026500,-114.23080000
7.07282500,-114.23080000
7.07538500,-114.23080000
7.07794500,-114.23080000
7.08050500,-114.23080000
7.08306500,-114.23080000
7.08562500,-114.23080000
7.08818500,-114.23080000
7.09074500,-114.23080000
7.09330500,-118.70170000
7.09586500,-118.70170000
7.09842500,-118.70170000
7.10098500,-118.70170000
7.10354500,-118.70170000
7.10610500,-118.70170000
7.10866500,-118.70170000
7.11122500,-118.70170000
7.11378500,-118.70170000
7.11634500,-118.70170000
7.11890500,-118.70170000
7.12146500,-118.70170000
7.12402500,-118.70170000
7.12658500,-118.70170000
7.12914500,-118.70170000
7.13170500,-118.70170000
7.13426500,-118.70170000
7.13682500,-118.70170000
7.13938500,-123.17270000
7.14194500,-118.70170000
7.14450500,-123.17270000
7.14706500,-118.70170000
7.14962500,-123.17270000
7.15218500,-123.17270000
7.15474500,-123.17270000
7.15730500,-118.70170000
7.15986500,-123.17270000
7.16242500,-123.17270000
7.16498500,-123.17270000
7.16754500,-123.17270000
7.17010500,-123.17270000
7.17266500,-123.17270000
7.17522500,-123.17270000
7.17778500,-123.17270000
7.18034500,-123.17270000
7.18290500,-123.17270000
7.18546500,-123.17270000
7.18802500,-123.17270000
7.19058500,-123.17270000
7.19314500,-123.17270000
7.19570500,-123.17270000
7.19826500,-123.17270000
7.20082500,-123.17270000
7.20338500,-123.17270000
7.20594500,-123.17270000
7.20850500,-123.17270000
7.21106500,-123.17270000
7.21362500,-123.17270000
7.21618500,-123.17270000
7.21874500,-123.17270000
7.22130500,-123.17270000
7.22386500,-123.17270000
7.22642500,-123.17270000
7.22898500,-123.17270000
7.23154500,-123.17270000
7.23410500,-123.17270000
7.23666500,-123.17270000
7.23922500,-123.17270000
7.24178500,-123.17270000
7.24434500,-118.70170000
7.24690500,-123.17270000
7.24946500,-123.17270000
7.25202500,-118.70170000
7.25458500,-118.70170000
7.25714500,-118.70170000
7.25970500,-118.70170000
7.26226500,-118.70170000
7.26482500,-118.70170000
7.26738500,-118.70170000
7.26994500,-118.70170000
7.27250500,-118.70170000
7.27506500,-118.70170000
7.27762500,-118.70170000
7.28018500,-118.70170000
7.28274500,-118.70170000
7.28530500,-118.70170000
7.28786500,-118.70170000
7.29042500,-118.70170000
7.29298500,-118.70170000
7.29554500,-118.70170000
7.29810500,-118.70170000
7.30066500,-118.70170000
7.30322500,-118.70170000
7.30578500,-114.23080000
7.30834500,-114.23080000
7.31090500,-114.23080000
7.31346500,-114.23080000
7.31602500,-114.23080000
7.31858500,-114.23080000
7.32114500,-114.23080000
7.32370500,-114.23080000
7.32626500,-114.23080000
7.32882500,-114.23080000
7.33138500,-114.23080000
7.33394500,-114.23080000
7.33650500,-114.23080000
7.33906500,-114.23080000
7.34162500,-114.23080000
7.34418500,-114.23080000
7.34674500,-114.23080000
7.34930500,-114.23080000
7.35186500,-114.23080000
7.35442500,-109.75980000
7.35698500,-109.75980000
7.35954500,-109.75980000
7.36210500,-114.23080000
7.36466500,-109.75980000
7.36722500,-105.28880000
7.36978500,-109.75980000
7.37234500,-109.75980000
7.37490500,-105.28880000
7.37746500,-105.28880000
7.38002500,-105.28880000
7.38258500,-109.75980000
7.38514500,-105.28880000
7.38770500,-105.28880000
7.39026500,-105.28880000
7.39282500,-105.28880000
7.39538500,-105.28880000
7.39794500,-105.28880000
7.40050500,-105.28880000
7.40306500,-105.28880000
7.40562500,-105.28880000
7.40818500,-105.28880000
7.41074500,-105.28880000
7.41330500,-105.28880000
7.41586500,-105.28880000
7.41842500,-105.28880000
7.42098500,-105.28880000
7.42354500,-105.28880000
7.42610500,-105.28880000
7.42866500,-105.28880000
7.43122500,-105.28880000
7.43378500,-105.28880000
7.43634500,-105.28880000
7.43890500,-100.81790000
7.44146500,-100.81790000
7.44402500,-100.81790000
7.44658500,-100.81790000
7.44914500,-100.81790000
7.45170500,-96.34693000
7.45426500,-96.34693000
7.45682500,-100.81790000
7.45938500,-96.34693000
7.46194500,-100.81790000
7.46450500,-96.34693000
7.46706500,-96.34693000
7.46962500,-96.34693000
7.47218500,-96.34693000
7.47474500,-96.34693000
7.47730500,-96.34693000
7.47986500,-96.34693000
7.48242500,-96.34693000
7.48498500,-96.34693000
7.48754500,-96.34693000
7.49010500,-96.34693000
7.49266500,-96.34693000
7.49522500,-96.34693000
7.49778500,-91.87596000
7.50034500,-91.87596000
7.50290500,-91.87596000
7.50546500,-91.87596000
7.50802500,-91.87596000
7.51058500,-91.87596000
7.51314500,-91.87596000
7.51570500,-87.40501000
7.51826500,-91.87596000
7.52082500,-87.40501000
7.52338500,-87.40501000
7.52594499,-87.40501000
7.52850499,-87.40501000
7.53106499,-87.40501000
7.53362499,-87.40501000
7.53618499,-87.40501000
7.53874499,-87.40501000
7.54130499,-87.40501000
7.54386499,-87.40501000
7.54642499,-87.40501000
7.54898499,-87.40501000
7.55154499,-87.40501000
7.55410499,-87.40501000
7.55666499,-87.40501000
7.55922499,-87.40501000
7.56178499,-87.40501000
7.56434499,-87.40501000
7.56690499,-82.93404000
7.56946499,-82.93404000
7.57202499,-82.93404000
7.57458499,-82.93404000
7.57714499,-82.93404000
7.57970499,-82.93404000
7.58226499,-82.93404000
7.58482499,-82.93404000
7.58738499,-82.93404000
7.58994499,-82.93404000
7.59250499,-82.93404000
7.59506499,-82.93404000
7.59762499,-82.93404000
7.60018499,-82.93404000
7.60274499,-82.93404000
7.60530499,-78.46308000
7.60786499,-78.46308000
7.61042499,-78.46308000
7.61298499,-78.46308000
7.61554499,-78.46308000
7.61810499,-78.46308000
7.62066499,-78.46308000
7.62322499,-78.46308000
7.62578499,-78.46308000
7.62834499,-78.46308000
7.63090499,-78.46308000
7.63346499,-78.46308000
7.63602499,-78.46308000
7.63858499,-78.46308000
7.64114499,-78.46308000
7.64370499,-78.46308000
7.64626499,-78.46308000
7.64882499,-78.46308000
7.65138499,-78.46308000
7.65394499,-78.46308000
7.65650499,-78.46308000
7.65906499,-78.46308000
7.66162499,-78.46308000
7.66418499,-78.46308000
7.66674499,-78.46308000
7.66930499,-78.46308000
7.67186499,-78.46308000
7.67442499,-78.46308000
7.67698499,-78.46308000
7.67954499,-78.46308000
7.68210499,-78.46308000
7.68466499,-78.46308000
7.68722499,-73.99212000
7.68978499,-73.99212000
7.69234499,-73.99212000
7.69490499,-73.99212000
7.69746499,-73.99212000
7.70002499,-73.99212000
7.70258499,-73.99212000
7.70514499,-73.99212000
7.70770499,-73.99212000
7.71026499,-73.99212000
7.71282499,-73.99212000
7.71538499,-73.99212000
7.71794499,-73.99212000
7.72050499,-73.99212000
7.72306499,-69.50591000
7.72562499,-73.99212000
7.72818499,-69.50591000
7.73074499,-69.50591000
7.73330499,-69.50591000
7.73586499,-73.99212000
7.73842499,-73.99212000
7.74098499,-69.50591000
7.74354499,-69.50591000
7.74610499,-69.50591000
7.74866499,-69.50591000
7.75122499,-69.50591000
7.75378499,-69.50591000
7.75634499,-69.50591000
7.75890499,-69.50591000
7.76146499,-69.50591000
7.76402499,-69.50591000
7.76658499,-69.50591000
7.76914499,-69.50591000
7.77170499,-69.50591000
7.77426499,-69.50591000
7.77682499,-69.50591000
7.77938499,-73.99212000
7.78194499,-69.50591000
7.78450499,-69.50591000
7.78706499,-69.50591000
7.78962499,-69.50591000
7.79218499,-69.50591000
7.79474499,-69.50591000
7.79730499,-69.50591000
7.79986499,-69.50591000
7.80242499,-69.50591000
7.80498499,-69.50591000
7.80754499,-69.50591000
7.81010499,-69.50591000
7.81266499,-69.50591000
7.81522499,-69.50591000
7.81778499,-69.50591000
7.82034499,-69.50591000
7.82290499,-69.50591000
7.82546499,-69.50591000
7.82802499,-69.50591000
7.83058499,-69.50591000
7.83314499,-69.50591000
7.83570499,-69.50591000
7.83826499,-69.50591000
7.84082499,-69.50591000
7.84338499,-69.50591000
7.84594499,-69.50591000
7.84850499,-69.50591000
7.85106499,-69.50591000
7.85362499,-69.50591000
7.85618499,-69.50591000
7.85874499,-69.50591000
7.86130499,-69.50591000
7.86386499,-65.03493000
7.86642499,-65.03493000
7.86898499,-69.50591000
7.87154499,-69.50591000
7.87410499,-65.03493000
7.87666499,-65.03493000
7.87922499,-69.50591000
7.88178499,-65.03493000
7.88434499,-65.03493000
7.88690499,-65.03493000
7.88946499,-65.03493000
7.89202499,-65.03493000
7.89458499,-65.03493000
7.89714499,-65.03493000
7.89970499,-60.56398000
7.90226499,-60.56398000
7.90482499,-65.03493000
7.90738499,-60.56398000
7.90994499,-60.56398000
7.91250499,-65.03493000
7.91506499,-60.56398000
7.91762499,-60.56398000
7.92018499,-60.56398000
7.92274499,-60.56398000
7.92530499,-60.56398000
7.92786499,-60.56398000
7.93042499,-60.56398000
7.93298499,-60.56398000
7.93554499,-60.56398000
7.93810499,-60.56398000
7.94066499,-56.09302000
7.94322499,-60.56398000
7.94578499,-56.09302000
7.94834499,-51.62206000
7.95090499,-51.62206000
7.95346499,-51.62206000
7.95602499,-51.62206000
7.95858499,-51.62206000
7.96114499,-51.62206000
7.96370499,-51.62206000
7.96626499,-51.62206000
7.96882499,-51.62206000
7.97138499,-51.62206000
7.97394499,-51.62206000
7.97650499,-51.62206000
7.97906499,-51.62206000
7.98162499,-51.62206000
7.98418499,-51.62206000
7.98674499,-47.15109000
7.98930499,-47.15109000
7.99186499,-47.15109000
7.99442499,-47.15109000
7.99698499,-47.15109000
7.99954499,-47.15109000
8.00210499,-42.68013000
8.00466499,-42.68013000
8.00722499,-42.68013000
8.00978499,-42.68013000
8.01234499,-42.68013000
8.01490499,-42.68013000
8.01746499,-42.68013000
8.02002499,-42.68013000
8.02258499,-38.20917000
8.02514499,-38.20917000
8.02770499,-38.20917000
8.03026499,-38.20917000
8.03282499,-33.73821000
8.03538499,-33.73821000
8.03794499,-33.73821000
8.04050499,-33.73821000
8.04306499,-33.73821000
8.04562499,-33.73821000
8.04818499,-33.73821000
8.05074499,-33.73821000
8.05330499,-33.73821000
8.05586499,-33.73821000
8.05842499,-33.73821000
8.06098499,-29.26725000
8.06354499,-29.26725000
8.06610499,-29.26725000
8.06866499,-29.26725000
8.07122499,-29.26725000
8.07378499,-29.26725000
8.07634499,-29.26725000
8.07890499,-24.79629000
8.08146499,-24.79629000
8.08402499,-24.79629000
8.08658499,-24.79629000
8.08914499,-24.79629000
8.09170499,-24.79629000
8.09426499,-24.79629000
8.09682499,-24.79629000
8.09938499,-24.79629000
8.10194499,-24.79629000
8.10450499,-24.79629000
8.10706499,-20.32533000
8.10962499,-20.32533000
8.11218499,-24.79629000
8.11474499,-15.85437000
8.11730499,-24.79629000
8.11986499,-15.85437000
8.12242499,-20.32533000
8.12498499,-20.32533000
8.12754499,-20.32533000
8.13010499,-20.32533000
8.13266499,-15.85437000
8.13522499,-15.85437000
8.13778499,-15.85437000
8.14034499,-15.85437000
8.14290499,-15.85437000
8.14546499,-15.85437000
8.14802499,-15.85437000
8.15058499,-15.85437000
8.15314499,-15.85437000
8.15570499,-15.85437000
8.15826499,-15.85437000
8.16082499,-15.85437000
8.16338499,-15.85437000
8.16594499,-15.85437000
8.16850499,-15.85437000
8.17106499,-15.85437000
8.17362499,-15.85437000
8.17618499,-15.85437000
8.17874499,-15.85437000
8.18130499,-15.85437000
8.18386499,-11.38340000
8.18642499,-15.85437000
8.18898499,-15.85437000
8.19154499,-11.38340000
8.19410499,-15.85437000
8.19666499,-11.38340000
8.19922499,-11.38340000
8.20178499,-11.38340000
8.20434499,-11.38340000
8.20690499,-11.38340000
8.20946499,-11.38340000
8.21202499,-11.38340000
8.21458499,-11.38340000
8.21714499,-11.38340000
8.21970499,-11.38340000
8.22226499,-11.38340000
8.22482499,-11.38340000
8.22738499,-11.38340000
8.22994499,-11.38340000
8.23250499,-11.38340000
8.23506499,-11.38340000
8.23762499,-11.38340000
8.24018499,-11.38340000
8.24274499,-11.38340000
8.24530499,-11.38340000
8.24786499,-11.38340000
8.25042499,-11.38340000
8.25298499,-11.38340000
8.25554499,-11.38340000
8.25810499,-11.38340000
8.26066499,-11.38340000
8.26322499,-11.38340000
8.26578499,-11.38340000
8.26834499,-11.38340000
8.27090499,-11.38340000
8.27346499,-11.38340000
8.27602499,-11.38340000
8.27858499,-11.38340000
8.28114499,-15.85437000
8.28370499,-11.38340000
8.28626499,-15.85437000
8.28882499,-15.85437000
8.29138499,-15.85437000
8.29394499,-15.85437000
8.29650499,-15.85437000
8.29906499,-15.85437000
8.30162499,-15.85437000
8.30418499,-15.85437000
8.30674499,-15.85437000
8.30930499,-15.85437000
8.31186499,-15.85437000
8.31442499,-15.85437000
8.31698499,-15.85437000
8.31954499,-15.85437000
8.32210499,-15.85437000
8.32466499,-15.85437000
8.32722499,-15.85437000
8.32978499,-15.85437000
8.33234499,-15.85437000
8.33490499,-15.85437000
8.33746499,-15.85437000
8.34002499,-15.85437000
8.34258499,-15.85437000
8.34514499,-15.85437000
8.34770499,-15.85437000
8.35026499,-15.85437000
8.35282499,-15.85437000
8.35538499,-15.85437000
8.35794499,-15.85437000
8.36050499,-15.85437000
8.36306499,-15.85437000
8.36562499,-15.85437000
8.36818499,-15.85437000
8.37074499,-15.85437000
8.37330499,-15.85437000
8.37586499,-20.32533000
8.37842499,-20.32533000
8.38098499,-20.32533000
8.38354499,-20.32533000
8.38610499,-20.32533000
8.38866499,-20.32533000
8.39122499,-20.32533000
8.39378499,-20.32533000
8.39634499,-20.32533000
8.39890499,-20.32533000
8.40146499,-24.79629000
8.40402499,-20.32533000
8.40658499,-20.32533000
8.40914499,-20.32533000
8.41170499,-24.79629000
8.41426499,-24.79629000
8.41682499,-24.79629000
8.41938499,-24.79629000
8.42194499,-24.79629000
8.42450499,-24.79629000
8.42706499,-24.79629000
8.42962499,-24.79629000
8.43218499,-24.79629000
8.43474499,-24.79629000
8.43730499,-24.79629000
8.43986499,-24.79629000
8.44242499,-24.79629000
8.44498499,-24.79629000
8.44754499,-24.79629000
8.45010499,-24.79629000
8.45266499,-24.79629000
8.45522499,-24.79629000
8.45778499,-24.79629000
8.46034499,-24.79629000
8.46290499,-29.26725000
8.46546499,-24.79629000
8.46802499,-24.79629000
8.47058499,-24.79629000
8.47314499,-29.26725000
8.47570499,-24.79629000
8.47826499,-24.79629000
8.48082499,-29.26725000
8.48338499,-29.26725000
8.48594499,-29.26725000
8.48850499,-29.26725000
8.49106499,-29.26725000
8.49362499,-29.26725000
8.49618499,-33.73821000
8.49874499,-29.26725000
8.50130499,-33.73821000
8.50386499,-33.73821000
8.50642499,-33.73821000
8.50898499,-33.73821000
8.51154499,-33.73821000
8.51410499,-33.73821000
8.51666499,-33.73821000
8.51922499,-33.73821000
8.52178499,-33.73821000
8.52434499,-33.73821000
8.52690499,-33.73821000
8.52946499,-33.73821000
8.53202499,-33.73821000
8.53458499,-33.73821000
8.53714499,-33.73821000
8.53970499,-33.73821000
8.54226499,-33.73821000
8.54482499,-33.73821000
8.54738499,-33.73821000
8.54994499,-38.20917000
8.55250499,-33.73821000
8.55506499,-38.20917000
8.55762499,-33.73821000
8.56018499,-38.20917000
8.56274499,-38.20917000
8.56530499,-38.20917000
8.56786499,-38.20917000
8.57042499,-38.20917000
8.57298499,-38.20917000
8.57554499,-38.20917000
8.57810499,-38.20917000
8.58066499,-42.68013000
8.58322499,-42.68013000
8.58578499,-42.68013000
8.58834499,-42.68013000
8.59090499,-42.68013000
8.59346499,-42.68013000
8.59602499,-42.68013000
8.59858499,-42.68013000
8.60114499,-42.68013000
8.60370499,-42.68013000
8.60626499,-42.68013000
8.60882499,-42.68013000
8.61138499,-42.68013000
8.61394499,-42.68013000
8.61650499,-42.68013000
8.61906499,-42.68013000
8.62162499,-47.15109000
8.62418499,-47.15109000
8.62674499,-47.15109000
8.62930499,-47.15109000
8.63186499,-47.15109000
8.63442499,-47.15109000
8.63698499,-51.62206000
8.63954499,-51.62206000
8.64210499,-51.62206000
8.64466499,-51.62206000
8.64722499,-51.62206000
8.64978499,-51.62206000
8.65234499,-51.62206000
8.65490499,-51.62206000
8.65746499,-51.62206000
8.66002499,-51.62206000
8.66258499,-51.62206000
8.66514499,-51.62206000
8.66770499,-51.62206000
8.67026499,-51.62206000
8.67282499,-51.62206000
8.67538499,-51.62206000
8.67794499,-51.62206000
8.68050499,-51.62206000
8.68306499,-56.09302000
8.68562499,-51.62206000
8.68818499,-51.62206000
8.69074499,-56.09302000
8.69330499,-56.09302000
8.69586499,-56.09302000
8.69842499,-56.09302000
8.70098499,-56.09302000
8.70354499,-56.09302000
8.70610499,-56.09302000
8.70866499,-56.09302000
8.71122499,-56.09302000
8.71378499,-60.56398000
8.71634499,-60.56398000
8.71890499,-60.56398000
8.72146499,-60.56398000
8.72402499,-60.56398000
8.72658499,-60.56398000
8.72914499,-60.56398000
8.73170499,-60.56398000
8.73426499,-60.56398000
8.73682499,-60.56398000
8.73938499,-60.56398000
8.74194499,-60.56398000
8.74450499,-60.56398000
8.74706499,-60.56398000
8.74962499,-60.56398000
8.75218499,-65.03493000
8.75474499,-65.03493000
8.75730499,-65.03493000
8.75986499,-65.03493000
8.76242499,-65.03493000
8.76498499,-65.03493000
8.76754499,-65.03493000
8.77010499,-65.03493000
8.77266499,-65.03493000
8.77522499,-65.03493000
8.77778499,-69.50591000
8.78034499,-69.50591000
8.78290499,-65.03493000
8.78546499,-69.50591000
8.78802499,-69.50591000
8.79058499,-65.03493000
8.79314499,-69.50591000
8.79570499,-69.50591000
8.79826499,-69.50591000
8.80082499,-69.50591000
8.80338499,-69.50591000
8.80594499,-69.50591000
8.80850499,-69.50591000
8.81106499,-69.50591000
8.81362499,-69.50591000
8.81618499,-69.50591000
8.81874499,-69.50591000
8.82130499,-69.50591000
8.82386499,-69.50591000
8.82642499,-69.50591000
8.82898499,-69.50591000
8.83154499,-69.50591000
8.83410499,-69.50591000
8.83666499,-69.50591000
8.83922499,-69.50591000
8.84178499,-73.99212000
8.84434499,-73.99212000
8.84690499,-73.99212000
8.84946499,-69.50591000
8.85202499,-73.99212000
8.85458499,-78.46308000
8.85714499,-78.46308000
8.85970499,-73.99212000
8.86226499,-73.99212000
8.86482499,-73.99212000
8.86738499,-78.46308000
8.86994499,-78.46308000
8.87250499,-78.46308000
8.87506499,-78.46308000
8.87762499,-78.46308000
8.88018499,-78.46308000
8.88274499,-73.99212000
8.88530499,-78.46308000
8.88786499,-78.46308000
8.89042499,-78.46308000
8.89298499,-78.46308000
8.89554499,-78.46308000
8.89810499,-78.46308000
8.90066499,-78.46308000
8.90322499,-78.46308000
8.90578499,-78.46308000
8.90834499,-78.46308000
8.91090499,-78.46308000
8.91346499,-78.46308000
8.91602499,-78.46308000
8.91858499,-78.46308000
8.92114499,-78.46308000
8.92370499,-78.46308000
8.92626499,-78.46308000
8.92882499,-78.46308000
8.93138499,-78.46308000
8.93394499,-78.46308000
8.93650499,-78.46308000
8.93906499,-78.46308000
8.94162499,-82.93404000
8.94418499,-78.46308000
8.94674499,-78.46308000
8.94930499,-82.93404000
8.95186499,-78.46308000
8.95442499,-82.93404000
8.95698499,-78.46308000
8.95954499,-82.93404000
8.96210499,-82.93404000
8.96466499,-78.46308000
8.96722499,-82.93404000
8.96978499,-82.93404000
8.97234499,-82.93404000
8.97490499,-82.93404000
8.97746499,-78.46308000
8.98002499,-82.93404000
8.98258499,-82.93404000
8.98514499,-82.93404000
8.98770499,-82.93404000
8.99026499,-82.93404000
8.99282499,-82.93404000
8.99538499,-82.93404000
8.99794499,-82.93404000
9.00050499,-82.93404000
9.00306499,-82.93404000
9.00562499,-82.93404000
9.00818499,-82.93404000
9.01074499,-82.93404000
9.01330499,-82.93404000
9.01586499,-82.93404000
9.01842499,-82.93404000
9.02098499,-82.93404000
9.02354499,-82.93404000
9.02610499,-82.93404000
9.02866499,-82.93404000
9.03122499,-82.93404000
9.03378499,-82.93404000
9.03634499,-82.93404000
9.03890499,-82.93404000
9.04146499,-82.93404000
9.04402499,-82.93404000
9.04658499,-82.93404000
9.04914499,-82.93404000
9.05170499,-82.93404000
9.05426499,-82.93404000
9.05682499,-82.93404000
9.05938499,-87.40501000
9.06194499,-87.40501000
9.06450499,-87.40501000
9.06706499,-82.93404000
9.06962499,-82.93404000
9.07218499,-87.40501000
9.07474499,-87.40501000
9.07730499,-87.40501000
9.07986499,-82.93404000
9.08242499,-82.93404000
9.08498499,-87.40501000
9.08754499,-82.93404000
9.09010499,-82.93404000
9.09266499,-87.40501000
9.09522499,-87.40501000
9.09778499,-87.40501000
9.10034499,-87.40501000
9.10290499,-87.40501000
9.10546499,-82.93404000
9.10802499,-87.40501000
9.11058499,-87.40501000
9.11314499,-87.40501000
9.11570499,-87.40501000
9.11826499,-87.40501000
9.12082499,-87.40501000
9.12338499,-87.40501000
9.12594499,-87.40501000
9.12850499,-87.40501000
9.13106499,-87.40501000
9.13362499,-87.40501000
9.13618499,-87.40501000
9.13874499,-87.40501000
9.14130499,-87.40501000
9.14386499,-87.40501000
9.14642499,-87.40501000
9.14898499,-87.40501000
9.15154499,-87.40501000
9.15410499,-87.40501000
9.15666499,-87.40501000
9.15922499,-87.40501000
9.16178499,-87.40501000
9.16434499,-87.40501000
9.16690499,-87.40501000
9.16946499,-87.40501000
9.17202498,-87.40501000
9.17458498,-87.40501000
9.17714498,-87.40501000
9.17970498,-87.40501000
9.18226498,-87.40501000
9.18482498,-82.93404000
9.18738498,-87.40501000
9.18994498,-87.40501000
9.19250498,-87.40501000
9.19506498,-82.93404000
9.19762498,-87.40501000
9.20018498,-82.93404000
9.20274498,-82.93404000
9.20530498,-87.40501000
9.20786498,-82.93404000
9.21042498,-82.93404000
9.21298498,-82.93404000
9.21554498,-82.93404000
9.21810498,-82.93404000
9.22066498,-87.40501000
9.22322498,-82.93404000
9.22578498,-82.93404000
9.22834498,-82.93404000
9.23090498,-82.93404000
9.23346498,-87.40501000
9.23602498,-82.93404000
9.23858498,-82.93404000
9.24114498,-82.93404000
9.24370498,-82.93404000
9.24626498,-82.93404000
9.24882498,-82.93404000
9.25138498,-82.93404000
9.25394498,-82.93404000
9.25650498,-87.40501000
9.25906498,-82.93404000
9.26162498,-82.93404000
9.26418498,-82.93404000
9.26674498,-82.93404000
9.26930498,-82.93404000
9.27186498,-82.93404000
9.27442498,-82.93404000
9.27698498,-82.93404000
9.27954498,-82.93404000
9.28210498,-82.93404000
9.28466498,-82.93404000
9.28722498,-82.93404000
9.28978498,-82.93404000
9.29234498,-87.40501000
9.29490498,-82.93404000
9.29746498,-82.93404000
9.30002498,-82.93404000
9.30258498,-82.93404000
9.30514498,-82.93404000
9.30770498,-82.93404000
9.31026498,-82.93404000
9.31282498,-82.93404000
9.31538498,-82.93404000
9.31794498,-82.93404000
9.32050498,-82.93404000
9.32306498,-82.93404000
9.32562498,-82.93404000
9.32818498,-82.93404000
9.33074498,-82.93404000
9.33330498,-82.93404000
9.33586498,-82.93404000
9.33842498,-82.93404000
9.34098498,-82.93404000
9.34354498,-82.93404000
9.34610498,-82.93404000
9.34866498,-82.93404000
9.35122498,-82.93404000
9.35378498,-82.93404000
9.35634498,-82.93404000
9.35890498,-82.93404000
9.36146498,-82.93404000
9.36402498,-82.93404000
9.36658498,-82.93404000
9.36914498,-82.93404000
9.37170498,-82.93404000
9.37426498,-82.93404000
9.37682498,-82.93404000
9.37938498,-82.93404000
9.38194498,-82.93404000
9.38450498,-82.93404000
9.38706498,-82.93404000
9.38962498,-82.93404000
9.39218498,-82.93404000
9.39474498,-82.93404000
9.39730498,-82.93404000
9.39986498,-82.93404000
9.40242498,-78.46308000
9.40498498,-82.93404000
9.40754498,-82.93404000
9.41010498,-82.93404000
9.41266498,-82.93404000
9.41522498,-82.93404000
9.41778498,-82.93404000
9.42034498,-82.93404000
9.42290498,-82.93404000
9.42546498,-82.93404000
9.42802498,-82.93404000
9.43058498,-82.93404000
9.43314498,-82.93404000
9.43570498,-82.93404000
9.43826498,-82.93404000
9.44082498,-82.93404000
9.44338498,-78.46308000
9.44594498,-78.46308000
9.44850498,-78.46308000
9.45106498,-82.93404000
9.45362498,-78.46308000
9.45618498,-78.46308000
9.45874498,-82.93404000
9.46130498,-78.46308000
9.46386498,-78.46308000
9.46642498,-78.46308000
9.46898498,-78.46308000
9.47154498,-82.93404000
9.47410498,-78.46308000
9.47666498,-78.46308000
9.47922498,-82.93404000
9.48178498,-82.93404000
9.48434498,-82.93404000
9.48690498,-78.46308000
9.48946498,-78.46308000
9.49202498,-78.46308000
9.49458498,-78.46308000
9.49714498,-78.46308000
9.49970498,-78.46308000
9.50226498,-78.46308000
9.50482498,-82.93404000
9.50738498,-78.46308000
9.50994498,-78.46308000
9.51250498,-78.46308000
9.51506498,-78.46308000
9.51762498,-78.46308000
9.52018498,-78.46308000
9.52274498,-78.46308000
9.52530498,-78.46308000
9.52786498,-78.46308000
9.53042498,-78.46308000
9.53298498,-82.93404000
9.53554498,-78.46308000
9.53810498,-82.93404000
9.54066498,-78.46308000
9.54322498,-78.46308000
9.54578498,-78.46308000
9.54834498,-82.93404000
9.55090498,-78.46308000
9.55346498,-78.46308000
9.55602498,-78.46308000
9.55858498,-78.46308000
9.56114498,-78.46308000
9.56370498,-78.46308000
9.56626498,-78.46308000
9.56882498,-78.46308000
9.57138498,-78.46308000
9.57394498,-78.46308000
9.57650498,-78.46308000
9.57906498,-78.46308000
9.58162498,-78.46308000
9.58418498,-78.46308000
9.58674498,-78.46308000
9.58930498,-78.46308000
9.59186498,-78.46308000
9.59442498,-78.46308000
9.59698498,-78.46308000
9.59954498,-78.46308000
9.60210498,-78.46308000
9.60466498,-78.46308000
9.60722498,-78.46308000
9.60978498,-78.46308000
9.61234498,-78.46308000
9.61490498,-78.46308000
9.61746498,-78.46308000
9.62002498,-78.46308000
9.62258498,-78.46308000
9.62514498,-78.46308000
9.62770498,-78.46308000
9.63026498,-78.46308000
9.63282498,-78.46308000
9.63538498,-78.46308000
9.63794498,-78.46308000
9.64050498,-78.46308000
9.64306498,-78.46308000
9.64562498,-78.46308000
9.64818498,-78.46308000
9.65074498,-78.46308000
9.65330498,-78.46308000
9.65586498,-82.93404000
9.65842498,-78.46308000
9.66098498,-78.46308000
9.66354498,-78.46308000
9.66610498,-78.46308000
9.66866498,-78.46308000
9.67122498,-78.46308000
9.67378498,-78.46308000
9.67634498,-78.46308000
9.67890498,-78.46308000
9.68146498,-78.46308000
9.68402498,-78.46308000
9.68658498,-78.46308000
9.68914498,-78.46308000
9.69170498,-78.46308000
9.69426498,-78.46308000
9.69682498,-78.46308000
9.69938498,-78.46308000
9.70194498,-78.46308000
9.70450498,-78.46308000
9.70706498,-78.46308000
9.70962498,-78.46308000
9.71218498,-78.46308000
9.71474498,-78.46308000
9.71730498,-78.46308000
9.71986498,-78.46308000
9.72242498,-78.46308000
9.72498498,-78.46308000
9.72754498,-78.46308000
9.73010498,-78.46308000
9.73266498,-78.46308000
9.73522498,-78.46308000
9.73778498,-78.46308000
9.74034498,-78.46308000
9.74290498,-78.46308000
9.74546498,-78.46308000
9.74802498,-78.46308000
9.75058498,-78.46308000
9.75314498,-78.46308000
9.75570498,-78.46308000
9.75826498,-78.46308000
9.76082498,-78.46308000
9.76338498,-78.46308000
9.76594498,-78.46308000
9.76850498,-78.46308000
9.77106498,-78.46308000
9.77362498,-78.46308000
9.77618498,-78.46308000
9.77874498,-78.46308000
9.78130498,-78.46308000
9.78386498,-78.46308000
9.78642498,-78.46308000
9.78898498,-78.46308000
9.79154498,-78.46308000
9.79410498,-78.46308000
9.79666498,-78.46308000
9.79922498,-78.46308000
9.80178498,-78.46308000
9.80434498,-78.46308000
9.80690498,-78.46308000
9.80946498,-78.46308000
9.81202498,-78.46308000
9.81458498,-78.46308000
9.81714498,-78.46308000
9.81970498,-78.46308000
9.82226498,-78.46308000
9.82482498,-78.46308000
9.82738498,-78.46308000
9.82994498,-78.46308000
9.83250498,-78.46308000
9.83506498,-78.46308000
9.83762498,-78.46308000
9.84018498,-78.46308000
9.84274498,-78.46308000
9.84530498,-78.46308000
9.84786498,-78.46308000
9.85042498,-78.46308000
9.85298498,-78.46308000
9.85554498,-73.99212000
9.85810498,-78.46308000
9.86066498,-78.46308000
9.86322498,-78.46308000
9.86578498,-78.46308000
9.86834498,-78.46308000
9.87090498,-78.46308000
9.87346498,-78.46308000
9.87602498,-78.46308000
9.87858498,-78.46308000
9.88114498,-78.46308000
9.88370498,-78.46308000
9.88626498,-78.46308000
9.88882498,-78.46308000
9.89138498,-78.46308000
9.89394498,-73.99212000
9.89650498,-78.46308000
9.89906498,-78.46308000
9.90162498,-78.46308000
9.90418498,-78.46308000
9.90674498,-78.46308000
9.90930498,-78.46308000
9.91186498,-78.46308000
9.91442498,-78.46308000
9.91698498,-78.46308000
9.91954498,-78.46308000
9.92210498,-73.99212000
9.92466498,-78.46308000
9.92722498,-78.46308000
9.92978498,-78.46308000
9.93234498,-78.46308000
9.93490498,-78.46308000
9.93746498,-78.46308000
9.94002498,-78.46308000
9.94258498,-78.46308000
9.94514498,-78.46308000
9.94770498,-78.46308000
9.95026498,-78.46308000
9.95282498,-78.46308000
9.95538498,-78.46308000
9.95794498,-78.46308000
9.96050498,-78.46308000
9.96306498,-78.46308000
9.96562498,-78.46308000
9.96818498,-78.46308000
9.97074498,-78.46308000
9.97330498,-78.46308000
9.97586498,-73.99212000
9.97842498,-73.99212000
9.98098498,-73.99212000
9.98354498,-78.46308000
9.98610498,-73.99212000
9.98866498,-73.99212000
9.99122498,-78.46308000
9.99378498,-78.46308000
9.99634498,-73.99212000
9.99890498,-73.99212000
10.00146498,-78.46308000
10.00402498,-78.46308000
10.00658498,-73.99212000
10.00914498,-73.99212000
10.01170498,-78.46308000
10.01426498,-78.46308000
10.01682498,-78.46308000
10.01938498,-73.99212000
10.02194498,-78.46308000
10.02450498,-73.99212000
10.02706498,-73.99212000
10.02962498,-78.46308000
10.03218498,-73.99212000
10.03474498,-73.99212000
10.03730498,-78.46308000
10.03986498,-78.46308000
10.04242498,-73.99212000
10.04498498,-73.99212000
10.04754498,-78.46308000
10.05010498,-73.99212000
10.05266498,-73.99212000
10.05522498,-78.46308000
10.05778498,-73.99212000
10.06034498,-78.46308000
10.06290498,-78.46308000
10.06546498,-78.46308000
10.06802498,-78.46308000
10.07058498,-78.46308000
10.07314498,-78.46308000
10.07570498,-78.46308000
10.07826498,-73.99212000
10.08082498,-69.50591000
10.08338498,-73.99212000
10.08594498,-73.99212000
10.08850498,-78.46308000
10.09106498,-73.99212000
10.09362498,-78.46308000
10.09618498,-73.99212000
10.09874498,-78.46308000
10.10130498,-73.99212000
10.10386498,-78.46308000
10.10642498,-73.99212000
10.10898498,-78.46308000
10.11154498,-78.46308000
10.11410498,-73.99212000
10.11666498,-73.99212000
10.11922498,-73.99212000
10.12178498,-73.99212000
10.12434498,-73.99212000
10.12690498,-73.99212000
10.12946498,-73.99212000
10.13202498,-78.46308000
10.13458498,-73.99212000
10.13714498,-73.99212000
10.13970498,-73.99212000
10.14226498,-73.99212000
10.14482498,-78.46308000
10.14738498,-73.99212000
10.14994498,-73.99212000
10.15250498,-73.99212000
10.15506498,-78.46308000
10.15762498,-78.46308000
10.16018498,-73.99212000
10.16274498,-78.46308000
10.16530498,-73.99212000
10.16786498,-73.99212000
10.17042498,-73.99212000
10.17298498,-73.99212000
10.17554498,-73.99212000
10.17810498,-73.99212000
10.18066498,-78.46308000
10.18322498,-73.99212000
10.18578498,-78.46308000
10.18834498,-73.99212000
10.19090498,-78.46308000
10.19346498,-78.46308000
10.19602498,-73.99212000
10.19858498,-73.99212000
10.20114498,-73.99212000
10.20370498,-73.99212000
10.20626498,-78.46308000
10.20882498,-78.46308000
10.21138498,-73.99212000
10.21394498,-78.46308000
10.21650498,-73.99212000
10.21906498,-78.46308000
10.22162498,-73.99212000
10.22418498,-78.46308000
10.22674498,-78.46308000
10.22930498,-78.46308000
10.23186498,-78.46308000
10.23442498,-78.46308000
10.23698498,-78.46308000
10.23954498,-73.99212000
10.24210498,-78.46308000
10.24466498,-78.46308000
10.24722498,-78.46308000
10.24978498,-78.46308000
10.25234498,-73.99212000
10.25490498,-78.46308000
10.25746498,-78.46308000
10.26002498,-73.99212000
10.26258498,-78.46308000
10.26514498,-78.46308000
10.26770498,-78.46308000
10.27026498,-78.46308000
10.27282498,-78.46308000
10.27538498,-73.99212000
10.27794498,-78.46308000
10.28050498,-73.99212000
10.28306498,-73.99212000
10.28562498,-78.46308000
10.28818498,-73.99212000
10.29074498,-73.99212000
10.29330498,-73.99212000
10.29586498,-73.99212000
10.29842498,-78.46308000
10.30098498,-73.99212000
10.30354498,-73.99212000
10.30610498,-73.99212000
10.30866498,-78.46308000
10.31122498,-78.46308000
10.31378498,-78.46308000
10.31634498,-73.99212000
10.31890498,-78.46308000
10.32146498,-78.46308000
10.32402498,-73.99212000
10.32658498,-78.46308000
10.32914498,-73.99212000
10.33170498,-78.46308000
10.33426498,-78.46308000
10.33682498,-78.46308000
10.33938498,-78.46308000
10.34194498,-73.99212000
10.34450498,-73.99212000
10.34706498,-78.46308000
10.34962498,-78.46308000
10.35218498,-78.46308000
10.35474498,-73.99212000
10.35730498,-78.46308000
10.35986498,-73.99212000
10.36242498,-78.46308000
10.36498498,-78.46308000
10.36754498,-78.46308000
10.37010498,-78.46308000
10.37266498,-73.99212000
10.37522498,-78.46308000
10.37778498,-73.99212000
10.38034498,-78.46308000
10.38290498,-78.46308000
10.38546498,-78.46308000
10.38802498,-78.46308000
10.39058498,-73.99212000
10.39314498,-78.46308000
10.39570498,-73.99212000
10.39826498,-78.46308000
10.40082498,-78.46308000
10.40338498,-78.46308000
10.40594498,-78.46308000
10.40850498,-73.99212000
10.41106498,-78.46308000
10.41362498,-78.46308000
10.41618498,-78.46308000
10.41874498,-78.46308000
10.42130498,-73.99212000
10.42386498,-78.46308000
10.42642498,-78.46308000
10.42898498,-78.46308000
10.43154498,-78.46308000
10.43410498,-78.46308000
10.43666498,-78.46308000
10.43922498,-73.99212000
10.44178498,-78.46308000
10.44434498,-73.99212000
10.44690498,-78.46308000
10.44946498,-78.46308000
10.45202498,-78.46308000
10.45458498,-73.99212000
10.45714498,-78.46308000
10.45970498,-73.99212000
10.46226498,-78.46308000
10.46482498,-78.46308000
10.46738498,-78.46308000
10.46994498,-73.99212000
10.47250498,-73.99212000
10.47506498,-78.46308000
10.47762498,-73.99212000
10.48018498,-78.46308000
10.48274498,-73.99212000
10.48530498,-78.46308000
10.48786498,-73.99212000
10.49042498,-78.46308000
10.49298498,-78.46308000
10.49554498,-78.46308000
10.49810498,-73.99212000
10.50066498,-73.99212000
10.50322498,-78.46308000
10.50578498,-73.99212000
10.50834498,-73.99212000
10.51090498,-73.99212000
10.51346498,-73.99212000
10.51602498,-73.99212000
10.51858498,-78.46308000
10.52114498,-73.99212000
10.52370498,-78.46308000
10.52626498,-73.99212000
10.52882498,-73.99212000
10.53138498,-78.46308000
10.53394498,-73.99212000
10.53650498,-73.99212000
10.53906498,-73.99212000
10.54162498,-73.99212000
10.54418498,-78.46308000
10.54674498,-78.46308000
10.54930498,-78.46308000
10.55186498,-78.46308000
10.55442498,-73.99212000
10.55698498,-78.46308000
10.55954498,-73.99212000
10.56210498,-78.46308000
10.56466498,-78.46308000
10.56722498,-78.46308000
10.56978498,-78.46308000
10.57234498,-73.99212000
10.57490498,-78.46308000
10.57746498,-73.99212000
10.58002498,-73.99212000
10.58258498,-73.99212000
10.58514498,-73.99212000
10.58770498,-78.46308000
10.59026498,-78.46308000
10.59282498,-78.46308000
10.59538498,-73.99212000
10.59794498,-78.46308000
10.60050498,-73.99212000
10.60306498,-73.99212000
10.60562498,-78.46308000
10.60818498,-78.46308000
10.61074498,-73.99212000
10.61330498,-73.99212000
10.61586498,-73.99212000
10.61842498,-73.99212000
10.62098498,-73.99212000
10.62354498,-73.99212000
10.62610498,-73.99212000
10.62866498,-73.99212000
10.63122498,-73.99212000
10.63378498,-73.99212000
10.63634498,-73.99212000
10.63890498,-73.99212000
10.64146498,-73.99212000
10.64402498,-73.99212000
10.64658498,-73.99212000
10.64914498,-73.99212000
10.65170498,-69.50591000
10.65426498,-69.50591000
10.65682498,-69.50591000
10.65938498,-73.99212000
10.66194498,-73.99212000
10.66450498,-69.50591000
10.66706498,-73.99212000
10.66962498,-73.99212000
10.67218498,-73.99212000
10.67474498,-73.99212000
10.67730498,-73.99212000
10.67986498,-73.99212000
10.68242498,-69.50591000
10.68498498,-73.99212000
10.68754498,-73.99212000
10.69010498,-73.99212000
10.69266498,-73.99212000
10.69522498,-73.99212000
10.69778498,-73.99212000
10.70034498,-73.99212000
10.70290498,-73.99212000
10.70546498,-73.99212000
10.70802498,-73.99212000
10.71058498,-69.50591000
10.71314498,-73.99212000
10.71570498,-73.99212000
10.71826498,-73.99212000
10.72082498,-73.99212000
10.72338498,-73.99212000
10.72594498,-73.99212000
10.72850498,-73.99212000
10.73106498,-73.99212000
10.73362498,-73.99212000
10.73618498,-73.99212000
10.73874498,-73.99212000
10.74130498,-73.99212000
10.74386498,-73.99212000
10.74642498,-73.99212000
10.74898498,-78.46308000
10.75154498,-73.99212000
10.75410498,-73.99212000
10.75666498,-69.50591000
10.75922498,-73.99212000
10.76178498,-73.99212000
10.76434498,-73.99212000
10.76690498,-73.99212000
10.76946498,-69.50591000
10.77202498,-73.99212000
10.77458498,-73.99212000
10.77714498,-69.50591000
10.77970498,-78.46308000
10.78226498,-73.99212000
10.78482498,-73.99212000
10.78738498,-69.50591000
10.78994498,-73.99212000
10.79250498,-69.50591000
10.79506498,-73.99212000
10.79762498,-73.99212000
10.80018498,-69.50591000
10.80274498,-73.99212000
10.80530498,-73.99212000
10.80786498,-73.99212000
10.81042498,-73.99212000
10.81298498,-73.99212000
10.81554498,-73.99212000
10.81810497,-73.99212000
10.82066497,-69.50591000
10.82322497,-73.99212000
10.82578497,-73.99212000
10.82834497,-73.99212000
10.83090497,-69.50591000
10.83346497,-73.99212000
10.83602497,-73.99212000
10.83858497,-73.99212000
10.84114497,-69.50591000
10.84370497,-69.50591000
10.84626497,-73.99212000
10.84882497,-69.50591000
10.85138497,-73.99212000
10.85394497,-73.99212000
10.85650497,-73.99212000
10.85906497,-69.50591000
10.86162497,-73.99212000
10.86418497,-73.99212000
10.86674497,-73.99212000
10.86930497,-73.99212000
10.87186497,-73.99212000
10.87442497,-73.99212000
10.87698497,-73.99212000
10.87954497,-73.99212000
10.88210497,-73.99212000
10.88466497,-69.50591000
10.88722497,-73.99212000
10.88978497,-73.99212000
10.89234497,-73.99212000
10.89490497,-69.50591000
10.89746497,-69.50591000
10.90002497,-73.99212000
10.90258497,-73.99212000
10.90514497,-73.99212000
10.90770497,-73.99212000
10.91026497,-69.50591000
10.91282497,-73.99212000
10.91538497,-69.50591000
10.91794497,-73.99212000
10.92050497,-73.99212000
10.92306497,-73.99212000
10.92562497,-78.46308000
10.92818497,-73.99212000
10.93074497,-73.99212000
10.93330497,-73.99212000
10.93586497,-73.99212000
10.93842497,-73.99212000
10.94098497,-73.99212000
10.94354497,-73.99212000
10.94610497,-73.99212000
10.94866497,-73.99212000
10.95122497,-73.99212000
10.95378497,-73.99212000
10.95634497,-73.99212000
10.95890497,-73.99212000
10.96146497,-73.99212000
10.96402497,-69.50591000
10.96658497,-73.99212000
10.96914497,-73.99212000
10.97170497,-73.99212000
10.97426497,-73.99212000
10.97682497,-73.99212000
10.97938497,-73.99212000
10.98194497,-73.99212000
10.98450497,-78.46308000
10.98706497,-73.99212000
10.98962497,-78.46308000
10.99218497,-73.99212000
10.99474497,-73.99212000
10.99730497,-73.99212000
10.99986497,-69.50591000
11.00242497,-69.50591000
11.00498497,-73.99212000
11.00754497,-73.99212000
11.01010497,-78.46308000
11.01266497,-73.99212000
11.01522497,-73.99212000
11.01778497,-69.50591000
11.02034497,-73.99212000
11.02290497,-73.99212000
11.02546497,-73.99212000
11.02802497,-73.99212000
11.03058497,-73.99212000
11.03314497,-73.99212000
11.03570497,-73.99212000
11.03826497,-73.99212000
11.04082497,-73.99212000
11.04338497,-73.99212000
11.04594497,-69.50591000
11.04850497,-73.99212000
11.05106497,-73.99212000
11.05362497,-73.99212000
11.05618497,-78.46308000
11.05874497,-73.99212000
11.06130497,-73.99212000
11.06386497,-73.99212000
11.06642497,-73.99212000
11.06898497,-78.46308000
11.07154497,-73.99212000
11.07410497,-73.99212000
11.07666497,-73.99212000
11.07922497,-73.99212000
11.08178497,-73.99212000
11.08434497,-73.99212000
11.08690497,-73.99212000
11.08946497,-73.99212000
11.09202497,-73.99212000
11.09458497,-73.99212000
11.09714497,-73.99212000
11.09970497,-73.99212000
11.10226497,-73.99212000
11.10482497,-73.99212000
11.10738497,-73.99212000
11.10994497,-73.99212000
11.11250497,-73.99212000
11.11506497,-73.99212000
11.11762497,-73.99212000
11.12018497,-73.99212000
11.12274497,-73.99212000
11.12530497,-73.99212000
11.12786497,-73.99212000
11.13042497,-78.46308000
11.13298497,-73.99212000
11.13554497,-73.99212000
11.13810497,-73.99212000
11.14066497,-73.99212000
11.14322497,-73.99212000
11.14578497,-73.99212000
11.14834497,-73.99212000
11.15090497,-73.99212000
11.15346497,-73.99212000
11.15602497,-73.99212000
11.15858497,-73.99212000
11.16114497,-78.46308000
11.16370497,-73.99212000
11.16626497,-73.99212000
11.16882497,-73.99212000
11.17138497,-73.99212000
11.17394497,-73.99212000
11.17650497,-78.46308000
11.17906497,-73.99212000
11.18162497,-78.46308000
11.18418497,-78.46308000
11.18674497,-73.99212000
11.18930497,-73.99212000
11.19186497,-73.99212000
11.19442497,-73.99212000
11.19698497,-73.99212000
11.19954497,-73.99212000
11.20210497,-73.99212000
11.20466497,-73.99212000
11.20722497,-73.99212000
11.20978497,-78.46308000
11.21234497,-78.46308000
11.21490497,-73.99212000
11.21746497,-73.99212000
11.22002497,-73.99212000
11.22258497,-73.99212000
11.22514497,-73.99212000
11.22770497,-73.99212000
11.23026497,-78.46308000
11.23282497,-73.99212000
11.23538497,-73.99212000
11.23794497,-73.99212000
11.24050497,-78.46308000
11.24306497,-78.46308000
11.24562497,-73.99212000
11.24818497,-78.46308000
11.25074497,-73.99212000
11.25330497,-73.99212000
11.25586497,-78.46308000
11.25842497,-78.46308000
11.26098497,-78.46308000
11.26354497,-78.46308000
11.26610497,-73.99212000
11.26866497,-78.46308000
11.27122497,-78.46308000
11.27378497,-78.46308000
11.27634497,-78.46308000
11.27890497,-78.46308000
11.28146497,-78.46308000
11.28402497,-78.46308000
11.28658497,-73.99212000
11.28914497,-78.46308000
11.29170497,-73.99212000
11.29426497,-78.46308000
11.29682497,-78.46308000
11.29938497,-73.99212000
11.30194497,-73.99212000
11.30450497,-73.99212000
11.30706497,-78.46308000
11.30962497,-78.46308000
11.31218497,-78.46308000
11.31474497,-78.46308000
11.31730497,-73.99212000
11.31986497,-78.46308000
11.32242497,-73.99212000
11.32498497,-78.46308000
11.32754497,-78.46308000
11.33010497,-78.46308000
11.33266497,-78.46308000
11.33522497,-73.99212000
11.33778497,-78.46308000
11.34034497,-73.99212000
11.34290497,-73.99212000
11.34546497,-73.99212000
11.34802497,-73.99212000
11.35058497,-78.46308000
11.35314497,-73.99212000
11.35570497,-78.46308000
11.35826497,-73.99212000
11.36082497,-73.99212000
11.36338497,-73.99212000
11.36594497,-73.99212000
11.36850497,-73.99212000
11.37106497,-73.99212000
11.37362497,-73.99212000
11.37618497,-73.99212000
11.37874497,-73.99212000
11.38130497,-73.99212000
11.38386497,-78.46308000
11.38642497,-73.99212000
11.38898497,-78.46308000
11.39154497,-73.99212000
11.39410497,-78.46308000
11.39666497,-73.99212000
11.39922497,-78.46308000
11.40178497,-73.99212000
11.40434497,-73.99212000
11.40690497,-73.99212000
11.40946497,-73.99212000
11.41202497,-73.99212000
11.41458497,-73.99212000
11.41714497,-73.99212000
11.41970497,-73.99212000
11.42226497,-73.99212000
11.42482497,-73.99212000
11.42738497,-73.99212000
11.42994497,-73.99212000
11.43250497,-69.50591000
11.43506497,-73.99212000
11.43762497,-73.99212000
11.44018497,-73.99212000
11.44274497,-73.99212000
11.44530497,-73.99212000
11.44786497,-73.99212000
11.45042497,-69.50591000
11.45298497,-73.99212000
11.45554497,-73.99212000
11.45810497,-69.50591000
11.46066497,-73.99212000
11.46322497,-69.50591000
11.46578497,-73.99212000
11.46834497,-73.99212000
11.47090497,-73.99212000
11.47346497,-73.99212000
11.47602497,-73.99212000
11.47858497,-73.99212000
11.48114497,-73.99212000
11.48370497,-69.50591000
11.48626497,-73.99212000
11.48882497,-69.50591000
11.49138497,-73.99212000
11.49394497,-73.99212000
11.49650497,-73.99212000
11.49906497,-69.50591000
11.50162497,-69.50591000
11.50418497,-73.99212000
11.50674497,-69.50591000
11.50930497,-73.99212000
11.51186497,-73.99212000
11.51442497,-73.99212000
11.51698497,-73.99212000
11.51954497,-73.99212000
11.52210497,-69.50591000
11.52466497,-73.99212000
11.52722497,-73.99212000
11.52978497,-73.99212000
11.53234497,-73.99212000
11.53490497,-78.46308000
11.53746497,-73.99212000
11.54002497,-73.99212000
11.54258497,-73.99212000
11.54514497,-73.99212000
11.54770497,-73.99212000
11.55026497,-73.99212000
11.55282497,-73.99212000
11.55538497,-73.99212000
11.55794497,-73.99212000
11.56050497,-78.46308000
11.56306497,-73.99212000
11.56562497,-73.99212000
11.56818497,-73.99212000
11.57074497,-73.99212000
11.57330497,-73.99212000
11.57586497,-73.99212000
11.57842497,-73.99212000
11.58098497,-78.46308000
11.58354497,-73.99212000
11.58610497,-73.99212000
11.58866497,-73.99212000
11.59122497,-73.99212000
11.59378497,-73.99212000
11.59634497,-73.99212000
11.59890497,-73.99212000
11.60146497,-78.46308000
11.60402497,-73.99212000
11.60658497,-78.46308000
11.60914497,-78.46308000
11.61170497,-73.99212000
11.61426497,-73.99212000
11.61682497,-78.46308000
11.61938497,-73.99212000
11.62194497,-78.46308000
11.62450497,-78.46308000
11.62706497,-78.46308000
11.62962497,-78.46308000
11.63218497,-73.99212000
11.63474497,-73.99212000
11.63730497,-73.99212000
11.63986497,-73.99212000
11.64242497,-78.46308000
11.64498497,-78.46308000
11.64754497,-73.99212000
11.65010497,-78.46308000
11.65266497,-78.46308000
11.65522497,-73.99212000
11.65778497,-78.46308000
11.66034497,-78.46308000
11.66290497,-73.99212000
11.66546497,-73.99212000
11.66802497,-73.99212000
11.67058497,-73.99212000
11.67314497,-73.99212000
11.67570497,-73.99212000
11.67826497,-73.99212000
11.68082497,-73.99212000
11.68338497,-73.99212000
11.68594497,-78.46308000
11.68850497,-73.99212000
11.69106497,-73.99212000
11.69362497,-73.99212000
11.69618497,-73.99212000
11.69874497,-73.99212000
11.70130497,-73.99212000
11.70386497,-73.99212000
11.70642497,-73.99212000
11.70898497,-78.46308000
11.71154497,-73.99212000
11.71410497,-78.46308000
11.71666497,-73.99212000
11.71922497,-73.99212000
11.72178497,-78.46308000
11.72434497,-73.99212000
11.72690497,-73.99212000
11.72946497,-73.99212000
11.73202497,-73.99212000
11.73458497,-73.99212000
11.73714497,-73.99212000
11.73970497,-73.99212000
11.74226497,-73.99212000
11.74482497,-73.99212000
11.74738497,-73.99212000
11.74994497,-73.99212000
11.75250497,-73.99212000
11.75506497,-73.99212000
11.75762497,-73.99212000
11.76018497,-73.99212000
11.76274497,-78.46308000
11.76530497,-73.99212000
11.76786497,-73.99212000
11.77042497,-73.99212000
11.77298497,-73.99212000
11.77554497,-73.99212000
11.77810497,-73.99212000
11.78066497,-73.99212000
11.78322497,-73.99212000
11.78578497,-73.99212000
11.78834497,-73.99212000
11.79090497,-73.99212000
11.79346497,-73.99212000
11.79602497,-73.99212000
11.79858497,-73.99212000
11.80114497,-73.99212000
11.80370497,-73.99212000
11.80626497,-73.99212000
11.80882497,-73.99212000
11.81138497,-73.99212000
11.81394497,-73.99212000
11.81650497,-69.50591000
11.81906497,-73.99212000
11.82162497,-73.99212000
11.82418497,-73.99212000
11.82674497,-73.99212000
11.82930497,-69.50591000
11.83186497,-69.50591000
11.83442497,-73.99212000
11.83698497,-73.99212000
11.83954497,-73.99212000
11.84210497,-73.99212000
11.84466497,-69.50591000
11.84722497,-73.99212000
11.84978497,-73.99212000
11.85234497,-73.99212000
11.85490497,-69.50591000
11.85746497,-69.50591000
11.86002497,-73.99212000
11.86258497,-73.99212000
11.86514497,-69.50591000
11.86770497,-73.99212000
11.87026497,-69.50591000
11.87282497,-69.50591000
11.87538497,-69.50591000
11.87794497,-69.50591000
11.88050497,-69.50591000
11.88306497,-73.99212000
11.88562497,-69.50591000
11.88818497,-69.50591000
11.89074497,-73.99212000
11.89330497,-73.99212000
11.89586497,-73.99212000
11.89842497,-73.99212000
11.90098497,-69.50591000
11.90354497,-73.99212000
11.90610497,-73.99212000
11.90866497,-73.99212000
11.91122497,-69.50591000
11.91378497,-73.99212000
11.91634497,-69.50591000
11.91890497,-69.50591000
11.92146497,-73.99212000
11.92402497,-73.99212000
11.92658497,-73.99212000
11.92914497,-73.99212000
11.93170497,-69.50591000
11.93426497,-73.99212000
11.93682497,-69.50591000
11.93938497,-73.99212000
11.94194497,-73.99212000
11.94450497,-73.99212000
11.94706497,-69.50591000
11.94962497,-69.50591000
11.95218497,-73.99212000
11.95474497,-73.99212000
11.95730497,-73.99212000
11.95986497,-69.50591000
11.96242497,-69.50591000
11.96498497,-73.99212000
11.96754497,-73.99212000
11.97010497,-73.99212000
11.97266497,-73.99212000
11.97522497,-73.99212000
11.97778497,-73.99212000
11.98034497,-73.99212000
11.98290497,-73.99212000
11.98546497,-73.99212000
11.98802497,-73.99212000
11.99058497,-73.99212000
11.99314497,-73.99212000
11.99570497,-73.99212000
11.99826497,-73.99212000
12.00082497,-73.99212000
12.00338497,-73.99212000
12.00594497,-73.99212000
12.00850497,-73.99212000
12.01106497,-69.50591000
12.01362497,-73.99212000
12.01618497,-73.99212000
12.01874497,-73.99212000
12.02130497,-69.50591000
12.02386497,-73.99212000
12.02642497,-73.99212000
12.02898497,-73.99212000
12.03154497,-73.99212000
12.03410497,-78.46308000
12.03666497,-73.99212000
12.03922497,-73.99212000
12.04178497,-73.99212000
12.04434497,-73.99212000
12.04690497,-73.99212000
12.04946497,-78.46308000
12.05202497,-73.99212000
12.05458497,-73.99212000
12.05714497,-73.99212000
12.05970497,-73.99212000
12.06226497,-78.46308000
12.06482497,-78.46308000
12.06738497,-73.99212000
12.06994497,-78.46308000
12.07250497,-73.99212000
12.07506497,-78.46308000
12.07762497,-78.46308000
12.08018497,-78.46308000
12.08274497,-78.46308000
12.08530497,-78.46308000
12.08786497,-73.99212000
12.09042497,-78.46308000
12.09298497,-78.46308000
12.09554497,-78.46308000
12.09810497,-78.46308000
12.10066497,-78.46308000
12.10322497,-78.46308000
12.10578497,-73.99212000
12.10834497,-78.46308000
12.11090497,-78.46308000
12.11346497,-78.46308000
12.11602497,-78.46308000
12.11858497,-78.46308000
12.12114497,-73.99212000
12.12370497,-78.46308000
12.12626497,-78.46308000
12.12882497,-78.46308000
12.13138497,-78.46308000
12.13394497,-78.46308000
12.13650497,-78.46308000
12.13906497,-78.46308000
12.14162497,-78.46308000
12.14418497,-78.46308000
12.14674497,-78.46308000
12.14930497,-78.46308000
12.15186497,-78.46308000
12.15442497,-78.46308000
12.15698497,-78.46308000
12.15954497,-78.46308000
12.16210497,-78.46308000
12.16466497,-78.46308000
12.16722497,-78.46308000
12.16978497,-78.46308000
12.17234497,-78.46308000
12.17490497,-78.46308000
12.17746497,-78.46308000
12.18002497,-78.46308000
12.18258497,-78.46308000
12.18514497,-78.46308000
12.18770497,-78.46308000
12.19026497,-78.46308000
12.19282497,-78.46308000
12.19538497,-78.46308000
12.19794497,-78.46308000
12.20050497,-78.46308000
12.20306497,-78.46308000
12.20562497,-78.46308000
12.20818497,-78.46308000
12.21074497,-78.46308000
12.21330497,-78.46308000
12.21586497,-78.46308000
12.21842497,-78.46308000
12.22098497,-78.46308000
12.22354497,-78.46308000
12.22610497,-78.46308000
12.22866497,-78.46308000
12.23122497,-78.46308000
12.23378497,-78.46308000
12.23634497,-78.46308000
12.23890497,-78.46308000
12.24146497,-78.46308000
12.24402497,-78.46308000
12.24658497,-78.46308000
12.24914497,-78.46308000
12.25170497,-78.46308000
12.25426497,-78.46308000
12.25682497,-78.46308000
12.25938497,-78.46308000
12.26194497,-78.46308000
12.26450497,-78.46308000
12.26706497,-78.46308000
12.26962497,-78.46308000
12.27218497,-78.46308000
12.27474497,-78.46308000
12.27730497,-78.46308000
12.27986497,-78.46308000
12.28242497,-78.46308000
12.28498497,-78.46308000
12.28754497,-78.46308000
12.29010497,-78.46308000
12.29266497,-78.46308000
12.29522497,-78.46308000
12.29778497,-78.46308000
12.30034497,-78.46308000
12.30290497,-78.46308000
12.30546497,-78.46308000
12.30802497,-78.46308000
12.31058497,-78.46308000
12.31314497,-78.46308000
12.31570497,-78.46308000
12.31826497,-78.46308000
12.32082497,-78.46308000
12.32338497,-78.46308000
12.32594497,-78.46308000
12.32850497,-78.46308000
12.33106497,-78.46308000
12.33362497,-78.46308000
12.33618497,-78.46308000
12.33874497,-78.46308000
12.34130497,-78.46308000
12.34386497,-78.46308000
12.34642497,-78.46308000
12.34898497,-78.46308000
12.35154497,-78.46308000
12.35410497,-78.46308000
12.35666497,-78.46308000
12.35922497,-78.46308000
12.36178497,-78.46308000
12.36434497,-78.46308000
12.36690497,-78.46308000
12.36946497,-78.46308000
12.37202497,-78.46308000
12.37458497,-78.46308000
12.37714497,-78.46308000
12.37970497,-78.46308000
12.38226497,-78.46308000
12.38482497,-78.46308000
12.38738497,-78.46308000
12.38994497,-78.46308000
12.39250497,-78.46308000
12.39506497,-78.46308000
12.39762497,-78.46308000
12.40018497,-78.46308000
12.40274497,-78.46308000
12.40530497,-78.46308000
12.40786497,-78.46308000
12.41042497,-78.46308000
12.41298497,-78.46308000
12.41554497,-78.46308000
12.41810497,-78.46308000
12.42066497,-78.46308000
12.42322497,-78.46308000
12.42578497,-78.46308000
12.42834497,-78.46308000
12.43090497,-78.46308000
12.43346497,-78.46308000
12.43602497,-78.46308000
12.43858497,-78.46308000
12.44114497,-78.46308000
12.44370497,-78.46308000
12.44626497,-78.46308000
12.44882497,-78.46308000
12.45138497,-78.46308000
12.45394497,-78.46308000
12.45650497,-78.46308000
12.45906497,-78.46308000
12.46162496,-78.46308000
12.46418496,-78.46308000
12.46674496,-78.46308000
12.46930496,-78.46308000
12.47186496,-78.46308000
12.47442496,-78.46308000
12.47698496,-78.46308000
12.47954496,-78.46308000
12.48210496,-78.46308000
12.48466496,-78.46308000
12.48722496,-78.46308000
12.48978496,-78.46308000
12.49234496,-78.46308000
12.49490496,-78.46308000
12.49746496,-78.46308000
12.50002496,-78.46308000
12.50258496,-78.46308000
12.50514496,-78.46308000
12.50770496,-78.46308000
12.51026496,-78.46308000
12.51282496,-78.46308000
12.51538496,-78.46308000
12.51794496,-78.46308000
12.52050496,-78.46308000
12.52306496,-78.46308000
12.52562496,-78.46308000
12.52818496,-78.46308000
12.53074496,-78.46308000
12.53330496,-78.46308000
12.53586496,-78.46308000
12.53842496,-78.46308000
12.54098496,-78.46308000
12.54354496,-78.46308000
12.54610496,-78.46308000
12.54866496,-78.46308000
12.55122496,-78.46308000
12.55378496,-78.46308000
12.55634496,-73.99212000
12.55890496,-78.46308000
12.56146496,-73.99212000
12.56402496,-78.46308000
12.56658496,-78.46308000
12.56914496,-78.46308000
12.57170496,-73.99212000
12.57426496,-78.46308000
12.57682496,-78.46308000
12.57938496,-78.46308000
12.58194496,-78.46308000
12.58450496,-73.99212000
12.58706496,-73.99212000
12.58962496,-73.99212000
12.59218496,-78.46308000
12.59474496,-78.46308000
12.59730496,-78.46308000
12.59986496,-78.46308000
12.60242496,-78.46308000
12.60498496,-73.99212000
12.60754496,-78.46308000
12.61010496,-78.46308000
12.61266496,-78.46308000
12.61522496,-78.46308000
12.61778496,-73.99212000
12.62034496,-78.46308000
12.62290496,-78.46308000
12.62546496,-78.46308000
12.62802496,-78.46308000
12.63058496,-78.46308000
12.63314496,-73.99212000
12.63570496,-73.99212000
12.63826496,-73.99212000
12.64082496,-78.46308000
12.64338496,-73.99212000
12.64594496,-78.46308000
12.64850496,-78.46308000
12.65106496,-78.46308000
12.65362496,-78.46308000
12.65618496,-78.46308000
12.65874496,-78.46308000
12.66130496,-78.46308000
12.66386496,-73.99212000
12.66642496,-73.99212000
12.66898496,-73.99212000
12.67154496,-73.99212000
12.67410496,-78.46308000
12.67666496,-73.99212000
12.67922496,-73.99212000
12.68178496,-73.99212000
12.68434496,-78.46308000
12.68690496,-78.46308000
12.68946496,-78.46308000
12.69202496,-78.46308000
12.69458496,-73.99212000
12.69714496,-78.46308000
12.69970496,-78.46308000
12.70226496,-73.99212000
12.70482496,-73.99212000
12.70738496,-78.46308000
12.70994496,-73.99212000
12.71250496,-78.46308000
12.71506496,-73.99212000
12.71762496,-73.99212000
12.72018496,-73.99212000
12.72274496,-73.99212000
12.72530496,-73.99212000
12.72786496,-69.50591000
12.73042496,-73.99212000
12.73298496,-69.50591000
12.73554496,-73.99212000
12.73810496,-73.99212000
12.74066496,-73.99212000
12.74322496,-73.99212000
12.74578496,-73.99212000
12.74834496,-73.99212000
12.75090496,-73.99212000
12.75346496,-73.99212000
12.75602496,-73.99212000
12.75858496,-78.46308000
12.76114496,-73.99212000
12.76370496,-73.99212000
12.76626496,-73.99212000
12.76882496,-73.99212000
12.77138496,-73.99212000
12.77394496,-73.99212000
12.77650496,-73.99212000
12.77906496,-73.99212000
12.78162496,-73.99212000
12.78418496,-73.99212000
12.78674496,-73.99212000
12.78930496,-73.99212000
12.79186496,-78.46308000
12.79442496,-73.99212000
12.79698496,-73.99212000
12.79954496,-73.99212000
12.80210496,-73.99212000
12.80466496,-73.99212000
12.80722496,-73.99212000
12.80978496,-73.99212000
12.81234496,-73.99212000
12.81490496,-73.99212000
12.81746496,-73.99212000
12.82002496,-73.99212000
12.82258496,-73.99212000
12.82514496,-73.99212000
12.82770496,-73.99212000
12.83026496,-78.46308000
12.83282496,-73.99212000
12.83538496,-73.99212000
12.83794496,-73.99212000
12.84050496,-73.99212000
12.84306496,-78.46308000
12.84562496,-73.99212000
12.84818496,-73.99212000
12.85074496,-73.99212000
12.85330496,-78.46308000
12.85586496,-78.46308000
12.85842496,-78.46308000
12.86098496,-73.99212000
12.86354496,-73.99212000
12.86610496,-78.46308000
12.86866496,-73.99212000
12.87122496,-73.99212000
12.87378496,-78.46308000
12.87634496,-73.99212000
12.87890496,-73.99212000
12.88146496,-73.99212000
12.88402496,-73.99212000
12.88658496,-78.46308000
12.88914496,-73.99212000
12.89170496,-78.46308000
12.89426496,-73.99212000
12.89682496,-73.99212000
12.89938496,-78.46308000
12.90194496,-78.46308000
12.90450496,-73.99212000
12.90706496,-78.46308000
12.90962496,-73.99212000
12.91218496,-78.46308000
12.91474496,-73.99212000
12.91730496,-73.99212000
12.91986496,-78.46308000
12.92242496,-73.99212000
12.92498496,-73.99212000
12.92754496,-73.99212000
12.93010496,-78.46308000
12.93266496,-73.99212000
12.93522496,-73.99212000
12.93778496,-73.99212000
12.94034496,-73.99212000
12.94290496,-73.99212000
12.94546496,-73.99212000
12.94802496,-73.99212000
12.95058496,-78.46308000
12.95314496,-73.99212000
12.95570496,-78.46308000
12.95826496,-78.46308000
12.96082496,-73.99212000
12.96338496,-78.46308000
12.96594496,-78.46308000
12.96850496,-78.46308000
12.97106496,-78.46308000
12.97362496,-73.99212000
12.97618496,-78.46308000
12.97874496,-73.99212000
12.98130496,-73.99212000
12.98386496,-73.99212000
12.98642496,-73.99212000
12.98898496,-78.46308000
12.99154496,-73.99212000
12.99410496,-73.99212000
12.99666496,-73.99212000
12.99922496,-73.99212000
13.00178496,-73.99212000
13.00434496,-73.99212000
13.00690496,-78.46308000
13.00946496,-78.46308000
13.01202496,-73.99212000
13.01458496,-78.46308000
13.01714496,-73.99212000
13.01970496,-73.99212000
13.02226496,-73.99212000
13.02482496,-73.99212000
13.02738496,-73.99212000
13.02994496,-73.99212000
13.03250496,-78.46308000
13.03506496,-73.99212000
13.03762496,-78.46308000
13.04018496,-73.99212000
13.04274496,-73.99212000
13.04530496,-78.46308000
13.04786496,-78.46308000
13.05042496,-78.46308000
13.05298496,-78.46308000
13.05554496,-73.99212000
13.05810496,-73.99212000
13.06066496,-73.99212000
13.06322496,-78.46308000
13.06578496,-73.99212000
13.06834496,-78.46308000
13.07090496,-78.46308000
13.07346496,-73.99212000
13.07602496,-73.99212000
13.07858496,-73.99212000
13.08114496,-78.46308000
13.08370496,-78.46308000
13.08626496,-73.99212000
13.08882496,-73.99212000
13.09138496,-78.46308000
13.09394496,-73.99212000
13.09650496,-78.46308000
13.09906496,-78.46308000
13.10162496,-78.46308000
13.10418496,-73.99212000
13.10674496,-78.46308000
13.10930496,-78.46308000
13.11186496,-73.99212000
13.11442496,-73.99212000
13.11698496,-73.99212000
13.11954496,-78.46308000
13.12210496,-78.46308000
13.12466496,-73.99212000
13.12722496,-78.46308000
13.12978496,-73.99212000
13.13234496,-73.99212000
13.13490496,-78.46308000
13.13746496,-78.46308000
13.14002496,-73.99212000
13.14258496,-73.99212000
13.14514496,-78.46308000
13.14770496,-78.46308000
13.15026496,-78.46308000
13.15282496,-73.99212000
13.15538496,-73.99212000
13.15794496,-73.99212000
13.16050496,-73.99212000
13.16306496,-73.99212000
13.16562496,-73.99212000
13.16818496,-73.99212000
13.17074496,-73.99212000
13.17330496,-78.46308000
13.17586496,-78.46308000
13.17842496,-78.46308000
13.18098496,-73.99212000
13.18354496,-78.46308000
13.18610496,-73.99212000
13.18866496,-78.46308000
13.19122496,-78.46308000
13.19378496,-73.99212000
13.19634496,-78.46308000
13.19890496,-78.46308000
13.20146496,-78.46308000
13.20402496,-78.46308000
13.20658496,-78.46308000
13.20914496,-78.46308000
13.21170496,-73.99212000
13.21426496,-78.46308000
13.21682496,-78.46308000
13.21938496,-78.46308000
13.22194496,-78.46308000
13.22450496,-73.99212000
13.22706496,-78.46308000
13.22962496,-78.46308000
13.23218496,-73.99212000
13.23474496,-73.99212000
13.23730496,-78.46308000
13.23986496,-73.99212000
13.24242496,-73.99212000
13.24498496,-73.99212000
13.24754496,-78.46308000
13.25010496,-78.46308000
13.25266496,-78.46308000
13.25522496,-73.99212000
13.25778496,-78.46308000
13.26034496,-73.99212000
13.26290496,-73.99212000
13.26546496,-73.99212000
13.26802496,-78.46308000
13.27058496,-78.46308000
13.27314496,-73.99212000
13.27570496,-73.99212000
13.27826496,-78.46308000
13.28082496,-73.99212000
13.28338496,-78.46308000
13.28594496,-78.46308000
13.28850496,-78.46308000
13.29106496,-78.46308000
13.29362496,-73.99212000
13.29618496,-73.99212000
13.29874496,-73.99212000
13.30130496,-73.99212000
13.30386496,-73.99212000
13.30642496,-73.99212000
13.30898496,-78.46308000
13.31154496,-73.99212000
13.31410496,-78.46308000
13.31666496,-78.46308000
13.31922496,-73.99212000
13.32178496,-78.46308000
13.32434496,-78.46308000
13.32690496,-78.46308000
13.32946496,-73.99212000
13.33202496,-73.99212000
13.33458496,-73.99212000
13.33714496,-73.99212000
13.33970496,-73.99212000
13.34226496,-73.99212000
13.34482496,-73.99212000
13.34738496,-78.46308000
13.34994496,-73.99212000
13.35250496,-73.99212000
13.35506496,-73.99212000
13.35762496,-78.46308000
13.36018496,-73.99212000
13.36274496,-78.46308000
13.36530496,-78.46308000
13.36786496,-78.46308000
13.37042496,-78.46308000
13.37298496,-73.99212000
13.37554496,-78.46308000
13.37810496,-78.46308000
13.38066496,-78.46308000
13.38322496,-78.46308000
13.38578496,-78.46308000
13.38834496,-73.99212000
13.39090496,-78.46308000
13.39346496,-78.46308000
13.39602496,-78.46308000
13.39858496,-73.99212000
13.40114496,-78.46308000
13.40370496,-73.99212000
13.40626496,-73.99212000
13.40882496,-78.46308000
13.41138496,-78.46308000
13.41394496,-78.46308000
13.41650496,-78.46308000
13.41906496,-78.46308000
13.42162496,-78.46308000
13.42418496,-78.46308000
13.42674496,-78.46308000
13.42930496,-73.99212000
13.43186496,-78.46308000
13.43442496,-78.46308000
13.43698496,-78.46308000
13.43954496,-78.46308000
13.44210496,-78.46308000
13.44466496,-78.46308000
13.44722496,-78.46308000
13.44978496,-78.46308000
13.45234496,-78.46308000
13.45490496,-78.46308000
13.45746496,-78.46308000
13.46002496,-78.46308000
13.46258496,-78.46308000
13.46514496,-78.46308000
13.46770496,-78.46308000
13.47026496,-78.46308000
13.47282496,-78.46308000
13.47538496,-73.99212000
13.47794496,-73.99212000
13.48050496,-78.46308000
13.48306496,-78.46308000
13.48562496,-78.46308000
13.48818496,-78.46308000
13.49074496,-78.46308000
13.49330496,-78.46308000
13.49586496,-78.46308000
13.49842496,-78.46308000
13.50098496,-78.46308000
13.50354496,-78.46308000
13.50610496,-78.46308000
13.50866496,-78.46308000
13.51122496,-78.46308000
13.51378496,-78.46308000
13.51634496,-78.46308000
13.51890496,-73.99212000
13.52146496,-78.46308000
13.52402496,-78.46308000
13.52658496,-73.99212000
13.52914496,-73.99212000
13.53170496,-73.99212000
13.53426496,-78.46308000
13.53682496,-78.46308000
13.53938496,-78.46308000
13.54194496,-78.46308000
13.54450496,-73.99212000
13.54706496,-73.99212000
13.54962496,-78.46308000
13.55218496,-78.46308000
13.55474496,-73.99212000
13.55730496,-73.99212000
13.55986496,-78.46308000
13.56242496,-78.46308000
13.56498496,-78.46308000
13.56754496,-78.46308000
13.57010496,-78.46308000
13.57266496,-73.99212000
13.57522496,-78.46308000
13.57778496,-78.46308000
13.58034496,-73.99212000
13.58290496,-78.46308000
13.58546496,-78.46308000
13.58802496,-73.99212000
13.59058496,-78.46308000
13.59314496,-78.46308000
13.59570496,-78.46308000
13.59826496,-78.46308000
13.60082496,-78.46308000
13.60338496,-78.46308000
13.60594496,-73.99212000
13.60850496,-73.99212000
13.61106496,-73.99212000
13.61362496,-78.46308000
13.61618496,-78.46308000
13.61874496,-73.99212000
13.62130496,-73.99212000
13.62386496,-73.99212000
13.62642496,-73.99212000
13.62898496,-73.99212000
13.63154496,-73.99212000
13.63410496,-78.46308000
13.63666496,-73.99212000
13.63922496,-73.99212000
13.64178496,-78.46308000
13.64434496,-73.99212000
13.64690496,-73.99212000
13.64946496,-73.99212000
13.65202496,-73.99212000
13.65458496,-73.99212000
13.65714496,-73.99212000
13.65970496,-73.99212000
13.66226496,-78.46308000
13.66482496,-73.99212000
13.66738496,-73.99212000
13.66994496,-73.99212000
13.67250496,-78.46308000
13.67506496,-73.99212000
13.67762496,-78.46308000
13.68018496,-78.46308000
13.68274496,-73.99212000
13.68530496,-78.46308000
13.68786496,-73.99212000
13.69042496,-73.99212000
13.69298496,-73.99212000
13.69554496,-73.99212000
13.69810496,-78.46308000
13.70066496,-78.46308000
13.70322496,-73.99212000
13.70578496,-73.99212000
13.70834496,-73.99212000
13.71090496,-73.99212000
13.71346496,-73.99212000
13.71602496,-73.99212000
13.71858496,-78.46308000
13.72114496,-73.99212000
13.72370496,-73.99212000
13.72626496,-73.99212000
13.72882496,-73.99212000
13.73138496,-78.46308000
13.73394496,-78.46308000
13.73650496,-73.99212000
13.73906496,-73.99212000
13.74162496,-73.99212000
13.74418496,-78.46308000
13.74674496,-73.99212000
13.74930496,-73.99212000
13.75186496,-73.99212000
13.75442496,-78.46308000
13.75698496,-78.46308000
13.75954496,-78.46308000
13.76210496,-73.99212000
13.76466496,-73.99212000
13.76722496,-73.99212000
13.76978496,-73.99212000
13.77234496,-78.46308000
13.77490496,-78.46308000
13.77746496,-73.99212000
13.78002496,-73.99212000
13.78258496,-78.46308000
13.78514496,-73.99212000
13.78770496,-73.99212000
13.79026496,-73.99212000
13.79282496,-73.99212000
13.79538496,-73.99212000
13.79794496,-73.99212000
13.80050496,-73.99212000
13.80306496,-78.46308000
13.80562496,-73.99212000
13.80818496,-73.99212000
13.81074496,-73.99212000
13.81330496,-73.99212000
13.81586496,-73.99212000
13.81842496,-73.99212000
13.82098496,-78.46308000
13.82354496,-73.99212000
13.82610496,-78.46308000
13.82866496,-73.99212000
13.83122496,-78.46308000
13.83378496,-73.99212000
13.83634496,-73.99212000
13.83890496,-73.99212000
13.84146496,-73.99212000
13.84402496,-73.99212000
13.84658496,-73.99212000
13.84914496,-73.99212000
13.85170496,-73.99212000
13.85426496,-73.99212000
13.85682496,-78.46308000
13.85938496,-73.99212000
13.86194496,-73.99212000
13.86450496,-73.99212000
13.86706496,-73.99212000
13.86962496,-73.99212000
13.87218496,-73.99212000
13.87474496,-73.99212000
13.87730496,-73.99212000
13.87986496,-73.99212000
13.88242496,-73.99212000
13.88498496,-73.99212000
13.88754496,-73.99212000
13.89010496,-73.99212000
13.89266496,-73.99212000
13.89522496,-73.99212000
13.89778496,-73.99212000
13.90034496,-73.99212000
13.90290496,-78.46308000
13.90546496,-78.46308000
13.90802496,-73.99212000
13.91058496,-73.99212000
13.91314496,-73.99212000
13.91570496,-73.99212000
13.91826496,-73.99212000
13.92082496,-73.99212000
13.92338496,-73.99212000
13.92594496,-73.99212000
13.92850496,-73.99212000
13.93106496,-73.99212000
13.93362496,-73.99212000
13.93618496,-73.99212000
13.93874496,-69.50591000
13.94130496,-73.99212000
13.94386496,-73.99212000
13.94642496,-73.99212000
13.94898496,-78.46308000
13.95154496,-73.99212000
13.95410496,-73.99212000
13.95666496,-69.50591000
13.95922496,-73.99212000
13.96178496,-73.99212000
13.96434496,-69.50591000
13.96690496,-73.99212000
13.96946496,-73.99212000
13.97202496,-73.99212000
13.97458496,-73.99212000
13.97714496,-73.99212000
13.97970496,-73.99212000
13.98226496,-73.99212000
13.98482496,-73.99212000
13.98738496,-73.99212000
13.98994496,-73.99212000
13.99250496,-73.99212000
13.99506496,-73.99212000
13.99762496,-73.99212000
14.00018496,-73.99212000
14.00274496,-73.99212000
14.00530496,-73.99212000
14.00786496,-73.99212000
14.01042496,-73.99212000
14.01298496,-73.99212000
14.01554496,-73.99212000
14.01810496,-69.50591000
14.02066496,-73.99212000
14.02322496,-73.99212000
14.02578496,-73.99212000
14.02834496,-69.50591000
14.03090496,-69.50591000
14.03346496,-73.99212000
14.03602496,-73.99212000
14.03858496,-69.50591000
14.04114496,-73.99212000
14.04370496,-73.99212000
14.04626496,-73.99212000
14.04882496,-69.50591000
14.05138496,-73.99212000
14.05394496,-73.99212000
14.05650496,-69.50591000
14.05906496,-69.50591000
14.06162496,-69.50591000
14.06418496,-69.50591000
14.06674496,-69.50591000
14.06930496,-69.50591000
14.07186496,-69.50591000
14.07442496,-69.50591000
14.07698496,-69.50591000
14.07954496,-69.50591000
14.08210496,-69.50591000
14.08466496,-69.50591000
14.08722496,-69.50591000
14.08978496,-69.50591000
14.09234496,-69.50591000
14.09490496,-69.50591000
14.09746496,-69.50591000
14.10002496,-69.50591000
14.10258496,-69.50591000
14.10514496,-69.50591000
14.10770495,-69.50591000
14.11026495,-69.50591000
14.11282495,-69.50591000
14.11538495,-69.50591000
14.11794495,-69.50591000
14.12050495,-69.50591000
14.12306495,-69.50591000
14.12562495,-69.50591000
14.12818495,-69.50591000
14.13074495,-69.50591000
14.13330495,-69.50591000
14.13586495,-69.50591000
14.13842495,-69.50591000
14.14098495,-69.50591000
14.14354495,-69.50591000
14.14610495,-69.50591000
14.14866495,-69.50591000
14.15122495,-69.50591000
14.15378495,-69.50591000
14.15634495,-69.50591000
14.15890495,-69.50591000
14.16146495,-69.50591000
14.16402495,-69.50591000
14.16658495,-69.50591000
14.16914495,-69.50591000
14.17170495,-69.50591000
14.17426495,-69.50591000
14.17682495,-69.50591000
14.17938495,-69.50591000
14.18194495,-69.50591000
14.18450495,-69.50591000
14.18706495,-69.50591000
14.18962495,-69.50591000
14.19218495,-69.50591000
14.19474495,-69.50591000
14.19730495,-69.50591000
14.19986495,-69.50591000
14.20242495,-69.50591000
14.20498495,-69.50591000
14.20754495,-69.50591000
14.21010495,-69.50591000
14.21266495,-69.50591000
14.21522495,-69.50591000
14.21778495,-69.50591000
14.22034495,-69.50591000
14.22290495,-69.50591000
14.22546495,-69.50591000
14.22802495,-73.99212000
14.23058495,-69.50591000
14.23314495,-69.50591000
14.23570495,-69.50591000
14.23826495,-69.50591000
14.24082495,-69.50591000
14.24338495,-69.50591000
14.24594495,-69.50591000
14.24850495,-73.99212000
14.25106495,-73.99212000
14.25362495,-73.99212000
14.25618495,-69.50591000
14.25874495,-73.99212000
14.26130495,-69.50591000
14.26386495,-73.99212000
14.26642495,-69.50591000
14.26898495,-73.99212000
14.27154495,-73.99212000
14.27410495,-73.99212000
14.27666495,-73.99212000
14.27922495,-73.99212000
14.28178495,-73.99212000
14.28434495,-73.99212000
14.28690495,-73.99212000
14.28946495,-73.99212000
14.29202495,-73.99212000
14.29458495,-73.99212000
14.29714495,-69.50591000
14.29970495,-69.50591000
14.30226495,-78.46308000
14.30482495,-73.99212000
14.30738495,-73.99212000
14.30994495,-73.99212000
14.31250495,-73.99212000
14.31506495,-73.99212000
14.31762495,-73.99212000
14.32018495,-73.99212000
14.32274495,-73.99212000
14.32530495,-73.99212000
14.32786495,-73.99212000
14.33042495,-73.99212000
14.33298495,-73.99212000
14.33554495,-73.99212000
14.33810495,-73.99212000
14.34066495,-73.99212000
14.34322495,-78.46308000
14.34578495,-73.99212000
14.34834495,-73.99212000
14.35090495,-73.99212000
14.35346495,-73.99212000
14.35602495,-73.99212000
14.35858495,-73.99212000
14.36114495,-78.46308000
14.36370495,-73.99212000
14.36626495,-73.99212000
14.36882495,-73.99212000
14.37138495,-73.99212000
14.37394495,-73.99212000
14.37650495,-73.99212000
14.37906495,-78.46308000
14.38162495,-73.99212000
14.38418495,-69.50591000
14.38674495,-73.99212000
14.38930495,-73.99212000
14.39186495,-69.50591000
14.39442495,-69.50591000
14.39698495,-73.99212000
14.39954495,-73.99212000
14.40210495,-73.99212000
14.40466495,-73.99212000
14.40722495,-69.50591000
14.40978495,-73.99212000
14.41234495,-73.99212000
14.41490495,-73.99212000
14.41746495,-73.99212000
14.42002495,-69.50591000
14.42258495,-73.99212000
14.42514495,-73.99212000
14.42770495,-73.99212000
14.43026495,-73.99212000
14.43282495,-73.99212000
14.43538495,-73.99212000
14.43794495,-73.99212000
14.44050495,-69.50591000
14.44306495,-73.99212000
14.44562495,-73.99212000
14.44818495,-69.50591000
14.45074495,-73.99212000
14.45330495,-73.99212000
14.45586495,-69.50591000
14.45842495,-73.99212000
14.46098495,-73.99212000
14.46354495,-69.50591000
14.46610495,-73.99212000
14.46866495,-69.50591000
14.47122495,-69.50591000
14.47378495,-69.50591000
14.47634495,-69.50591000
14.47890495,-69.50591000
14.48146495,-69.50591000
14.48402495,-73.99212000
14.48658495,-69.50591000
14.48914495,-69.50591000
14.49170495,-69.50591000
14.49426495,-73.99212000
14.49682495,-69.50591000
14.49938495,-69.50591000
14.50194495,-69.50591000
14.50450495,-69.50591000
14.50706495,-69.50591000
14.50962495,-69.50591000
14.51218495,-69.50591000
14.51474495,-69.50591000
14.51730495,-69.50591000
14.51986495,-73.99212000
14.52242495,-69.50591000
14.52498495,-69.50591000
14.52754495,-69.50591000
14.53010495,-69.50591000
14.53266495,-69.50591000
14.53522495,-69.50591000
14.53778495,-69.50591000
14.54034495,-69.50591000
14.54290495,-69.50591000
14.54546495,-69.50591000
14.54802495,-69.50591000
14.55058495,-69.50591000
14.55314495,-69.50591000
14.55570495,-69.50591000
14.55826495,-69.50591000
14.56082495,-69.50591000
14.56338495,-69.50591000
14.56594495,-69.50591000
14.56850495,-69.50591000
14.57106495,-69.50591000
14.57362495,-69.50591000
14.57618495,-69.50591000
14.57874495,-69.50591000
14.58130495,-69.50591000
14.58386495,-69.50591000
14.58642495,-69.50591000
14.58898495,-69.50591000
14.59154495,-69.50591000
14.59410495,-69.50591000
14.59666495,-69.50591000
14.59922495,-69.50591000
14.60178495,-69.50591000
14.60434495,-69.50591000
14.60690495,-69.50591000
14.60946495,-69.50591000
14.61202495,-69.50591000
14.61458495,-69.50591000
14.61714495,-69.50591000
14.61970495,-69.50591000
14.62226495,-69.50591000
14.62482495,-69.50591000
14.62738495,-73.99212000
14.62994495,-69.50591000
14.63250495,-69.50591000
14.63506495,-69.50591000
14.63762495,-69.50591000
14.64018495,-69.50591000
14.64274495,-69.50591000
14.64530495,-69.50591000
14.64786495,-69.50591000
14.65042495,-69.50591000
14.65298495,-69.50591000
14.65554495,-69.50591000
14.65810495,-69.50591000
14.66066495,-69.50591000
14.66322495,-69.50591000
14.66578495,-69.50591000
14.66834495,-69.50591000
14.67090495,-69.50591000
14.67346495,-69.50591000
14.67602495,-69.50591000
14.67858495,-69.50591000
14.68114495,-69.50591000
14.68370495,-69.50591000
14.68626495,-69.50591000
14.68882495,-69.50591000
14.69138495,-69.50591000
14.69394495,-69.50591000
14.69650495,-69.50591000
14.69906495,-69.50591000
14.70162495,-69.50591000
14.70418495,-69.50591000
14.70674495,-69.50591000
14.70930495,-69.50591000
14.71186495,-69.50591000
14.71442495,-69.50591000
14.71698495,-69.50591000
14.71954495,-69.50591000
14.72210495,-69.50591000
14.72466495,-69.50591000
14.72722495,-69.50591000
14.72978495,-69.50591000
14.73234495,-69.50591000
14.73490495,-69.50591000
14.73746495,-69.50591000
14.74002495,-69.50591000
14.74258495,-69.50591000
14.74514495,-69.50591000
14.74770495,-73.99212000
14.75026495,-69.50591000
14.75282495,-69.50591000
14.75538495,-69.50591000
14.75794495,-69.50591000
14.76050495,-69.50591000
14.76306495,-69.50591000
14.76562495,-69.50591000
14.76818495,-69.50591000
14.77074495,-69.50591000
14.77330495,-69.50591000
14.77586495,-69.50591000
14.77842495,-69.50591000
14.78098495,-69.50591000
14.78354495,-69.50591000
14.78610495,-73.99212000
14.78866495,-69.50591000
14.79122495,-69.50591000
14.79378495,-69.50591000
14.79634495,-69.50591000
14.79890495,-69.50591000
14.80146495,-69.50591000
14.80402495,-69.50591000
14.80658495,-69.50591000
14.80914495,-73.99212000
14.81170495,-69.50591000
14.81426495,-69.50591000
14.81682495,-69.50591000
14.81938495,-69.50591000
14.82194495,-69.50591000
14.82450495,-69.50591000
14.82706495,-69.50591000
14.82962495,-69.50591000
14.83218495,-73.99212000
14.83474495,-69.50591000
14.83730495,-73.99212000
14.83986495,-69.50591000
14.84242495,-73.99212000
14.84498495,-69.50591000
14.84754495,-73.99212000
14.85010495,-73.99212000
14.85266495,-73.99212000
14.85522495,-73.99212000
14.85778495,-73.99212000
14.86034495,-69.50591000
14.86290495,-73.99212000
14.86546495,-73.99212000
14.86802495,-73.99212000
14.87058495,-73.99212000
14.87314495,-73.99212000
14.87570495,-73.99212000
14.87826495,-73.99212000
14.88082495,-78.46308000
14.88338495,-73.99212000
14.88594495,-73.99212000
14.88850495,-73.99212000
14.89106495,-73.99212000
14.89362495,-73.99212000
14.89618495,-73.99212000
14.89874495,-73.99212000
14.90130495,-73.99212000
14.90386495,-73.99212000
14.90642495,-73.99212000
14.90898495,-73.99212000
14.91154495,-73.99212000
14.91410495,-73.99212000
14.91666495,-73.99212000
14.91922495,-73.99212000
14.92178495,-73.99212000
14.92434495,-73.99212000
14.92690495,-73.99212000
14.92946495,-73.99212000
14.93202495,-78.46308000
14.93458495,-78.46308000
14.93714495,-73.99212000
14.93970495,-78.46308000
14.94226495,-73.99212000
14.94482495,-73.99212000
14.94738495,-78.46308000
14.94994495,-78.46308000
14.95250495,-73.99212000
14.95506495,-73.99212000
14.95762495,-73.99212000
14.96018495,-78.46308000
14.96274495,-78.46308000
14.96530495,-73.99212000
14.96786495,-73.99212000
14.97042495,-73.99212000
14.97298495,-78.46308000
14.97554495,-78.46308000
14.97810495,-78.46308000
14.98066495,-78.46308000
14.98322495,-73.99212000
14.98578495,-78.46308000
14.98834495,-73.99212000
14.99090495,-78.46308000
14.99346495,-78.46308000
14.99602495,-78.46308000
14.99858495,-78.46308000
15.00114495,-73.99212000
15.00370495,-73.99212000
15.00626495,-78.46308000
15.00882495,-78.46308000
15.01138495,-73.99212000
15.01394495,-73.99212000
15.01650495,-73.99212000
15.01906495,-73.99212000
15.02162495,-78.46308000
15.02418495,-78.46308000
15.02674495,-73.99212000
15.02930495,-73.99212000
15.03186495,-78.46308000
15.03442495,-78.46308000
15.03698495,-78.46308000
15.03954495,-73.99212000
15.04210495,-73.99212000
15.04466495,-78.46308000
15.04722495,-73.99212000
15.04978495,-78.46308000
15.05234495,-78.46308000
15.05490495,-78.46308000
15.05746495,-78.46308000
15.06002495,-78.46308000
15.06258495,-78.46308000
15.06514495,-78.46308000
15.06770495,-73.99212000
15.07026495,-78.46308000
15.07282495,-78.46308000
15.07538495,-73.99212000
15.07794495,-73.99212000
15.08050495,-78.46308000
15.08306495,-78.46308000
15.08562495,-78.46308000
15.08818495,-73.99212000
15.09074495,-78.46308000
15.09330495,-78.46308000
15.09586495,-78.46308000
15.09842495,-78.46308000
15.10098495,-78.46308000
15.10354495,-78.46308000
15.10610495,-73.99212000
15.10866495,-78.46308000
15.11122495,-78.46308000
15.11378495,-78.46308000
15.11634495,-78.46308000
15.11890495,-78.46308000
15.12146495,-73.99212000
15.12402495,-78.46308000
15.12658495,-78.46308000
15.12914495,-78.46308000
15.13170495,-73.99212000
15.13426495,-73.99212000
15.13682495,-73.99212000
15.13938495,-78.46308000
15.14194495,-73.99212000
15.14450495,-78.46308000
15.14706495,-78.46308000
15.14962495,-78.46308000
15.15218495,-73.99212000
15.15474495,-78.46308000
15.15730495,-78.46308000
15.15986495,-78.46308000
15.16242495,-73.99212000
15.16498495,-78.46308000
15.16754495,-73.99212000
15.17010495,-78.46308000
15.17266495,-73.99212000
15.17522495,-73.99212000
15.17778495,-78.46308000
15.18034495,-73.99212000
15.18290495,-73.99212000
15.18546495,-73.99212000
15.18802495,-73.99212000
15.19058495,-73.99212000
15.19314495,-78.46308000
15.19570495,-78.46308000
15.19826495,-78.46308000
15.20082495,-73.99212000
15.20338495,-78.46308000
15.20594495,-73.99212000
15.20850495,-73.99212000
15.21106495,-73.99212000
15.21362495,-73.99212000
15.21618495,-73.99212000
15.21874495,-73.99212000
15.22130495,-78.46308000
15.22386495,-73.99212000
15.22642495,-73.99212000
15.22898495,-73.99212000
15.23154495,-73.99212000
15.23410495,-73.99212000
15.23666495,-73.99212000
15.23922495,-73.99212000
15.24178495,-73.99212000
15.24434495,-73.99212000
15.24690495,-73.99212000
15.24946495,-73.99212000
15.25202495,-73.99212000
15.25458495,-73.99212000
15.25714495,-73.99212000
15.25970495,-73.99212000
15.26226495,-73.99212000
15.26482495,-69.50591000
15.26738495,-73.99212000
15.26994495,-73.99212000
15.27250495,-73.99212000
15.27506495,-73.99212000
15.27762495,-73.99212000
15.28018495,-73.99212000
15.28274495,-73.99212000
15.28530495,-73.99212000
15.28786495,-73.99212000
15.29042495,-73.99212000
15.29298495,-69.50591000
15.29554495,-73.99212000
15.29810495,-78.46308000
15.30066495,-69.50591000
15.30322495,-69.50591000
15.30578495,-73.99212000
15.30834495,-73.99212000
15.31090495,-73.99212000
15.31346495,-73.99212000
15.31602495,-73.99212000
15.31858495,-73.99212000
15.32114495,-73.99212000
15.32370495,-78.46308000
15.32626495,-73.99212000
15.32882495,-73.99212000
15.33138495,-73.99212000
15.33394495,-73.99212000
15.33650495,-73.99212000
15.33906495,-73.99212000
15.34162495,-73.99212000
15.34418495,-78.46308000
15.34674495,-73.99212000
15.34930495,-73.99212000
15.35186495,-73.99212000
15.35442495,-73.99212000
15.35698495,-73.99212000
15.35954495,-73.99212000
15.36210495,-73.99212000
15.36466495,-73.99212000
15.36722495,-73.99212000
15.36978495,-73.99212000
15.37234495,-78.46308000
15.37490495,-73.99212000
15.37746495,-73.99212000
15.38002495,-73.99212000
15.38258495,-73.99212000
15.38514495,-73.99212000
15.38770495,-73.99212000
15.39026495,-73.99212000
15.39282495,-73.99212000
15.39538495,-73.99212000
15.39794495,-73.99212000
15.40050495,-73.99212000
15.40306495,-73.99212000
15.40562495,-69.50591000
15.40818495,-73.99212000
15.41074495,-73.99212000
15.41330495,-69.50591000
15.41586495,-73.99212000
15.41842495,-69.50591000
15.42098495,-73.99212000
15.42354495,-73.99212000
15.42610495,-73.99212000
15.42866495,-69.50591000
15.43122495,-73.99212000
15.43378495,-73.99212000
15.43634495,-69.50591000
15.43890495,-69.50591000
15.44146495,-73.99212000
15.44402495,-73.99212000
15.44658495,-73.99212000
15.44914495,-73.99212000
15.45170495,-73.99212000
15.45426495,-69.50591000
15.45682495,-73.99212000
15.45938495,-73.99212000
15.46194495,-69.50591000
15.46450495,-73.99212000
15.46706495,-73.99212000
15.46962495,-69.50591000
15.47218495,-69.50591000
15.47474495,-73.99212000
15.47730495,-73.99212000
15.47986495,-69.50591000
15.48242495,-73.99212000
15.48498495,-69.50591000
15.48754495,-69.50591000
15.49010495,-73.99212000
15.49266495,-73.99212000
15.49522495,-69.50591000
15.49778495,-73.99212000
15.50034495,-73.99212000
15.50290495,-73.99212000
15.50546495,-73.99212000
15.50802495,-73.99212000
15.51058495,-73.99212000
15.51314495,-73.99212000
15.51570495,-73.99212000
15.51826495,-73.99212000
15.52082495,-73.99212000
15.52338495,-73.99212000
15.52594495,-73.99212000
15.52850495,-73.99212000
15.53106495,-73.99212000
15.53362495,-73.99212000
15.53618495,-78.46308000
15.53874495,-73.99212000
15.54130495,-73.99212000
15.54386495,-73.99212000
15.54642495,-73.99212000
15.54898495,-69.50591000
15.55154495,-73.99212000
15.55410495,-73.99212000
15.55666495,-73.99212000
15.55922495,-73.99212000
15.56178495,-78.46308000
15.56434495,-78.46308000
15.56690495,-78.46308000
15.56946495,-73.99212000
15.57202495,-73.99212000
15.57458495,-78.46308000
15.57714495,-73.99212000
15.57970495,-73.99212000
15.58226495,-78.46308000
15.58482495,-78.46308000
15.58738495,-73.99212000
15.58994495,-73.99212000
15.59250495,-78.46308000
15.59506495,-73.99212000
15.59762495,-78.46308000
15.60018495,-78.46308000
15.60274495,-73.99212000
15.60530495,-73.99212000
15.60786495,-73.99212000
15.61042495,-78.46308000
15.61298495,-78.46308000
15.61554495,-78.46308000
15.61810495,-78.46308000
15.62066495,-78.46308000
15.62322495,-78.46308000
15.62578495,-78.46308000
15.62834495,-78.46308000
15.63090495,-73.99212000
15.63346495,-78.46308000
15.63602495,-73.99212000
15.63858495,-73.99212000
15.64114495,-78.46308000
15.64370495,-78.46308000
15.64626495,-78.46308000
15.64882495,-73.99212000
15.65138495,-78.46308000
15.65394495,-78.46308000
15.65650495,-78.46308000
15.65906495,-78.46308000
15.66162495,-78.46308000
15.66418495,-78.46308000
15.66674495,-78.46308000
15.66930495,-78.46308000
15.67186495,-78.46308000
15.67442495,-78.46308000
15.67698495,-78.46308000
15.67954495,-73.99212000
15.68210495,-78.46308000
15.68466495,-78.46308000
15.68722495,-78.46308000
15.68978495,-78.46308000
15.69234495,-78.46308000
15.69490495,-78.46308000
15.69746495,-78.46308000
15.70002495,-78.46308000
15.70258495,-78.46308000
15.70514495,-78.46308000
15.70770495,-78.46308000
15.71026495,-73.99212000
15.71282495,-78.46308000
15.71538495,-78.46308000
15.71794495,-78.46308000
15.72050495,-73.99212000
15.72306495,-78.46308000
15.72562495,-78.46308000
15.72818495,-78.46308000
15.73074495,-73.99212000
15.73330495,-78.46308000
15.73586495,-78.46308000
15.73842495,-78.46308000
15.74098495,-73.99212000
15.74354495,-73.99212000
15.74610495,-73.99212000
15.74866495,-78.46308000
15.75122495,-78.46308000
15.75378494,-78.46308000
15.75634494,-78.46308000
15.75890494,-78.46308000
15.76146494,-78.46308000
15.76402494,-78.46308000
15.76658494,-78.46308000
15.76914494,-73.99212000
15.77170494,-78.46308000
15.77426494,-78.46308000
15.77682494,-78.46308000
15.77938494,-78.46308000
15.78194494,-78.46308000
15.78450494,-73.99212000
15.78706494,-73.99212000
15.78962494,-78.46308000
15.79218494,-78.46308000
15.79474494,-78.46308000
15.79730494,-78.46308000
15.79986494,-73.99212000
15.80242494,-73.99212000
15.80498494,-78.46308000
15.80754494,-73.99212000
15.81010494,-73.99212000
15.81266494,-73.99212000
15.81522494,-78.46308000
15.81778494,-78.46308000
15.82034494,-78.46308000
15.82290494,-78.46308000
15.82546494,-73.99212000
15.82802494,-73.99212000
15.83058494,-73.99212000
15.83314494,-73.99212000
15.83570494,-73.99212000
15.83826494,-73.99212000
15.84082494,-73.99212000
15.84338494,-73.99212000
15.84594494,-73.99212000
15.84850494,-73.99212000
15.85106494,-73.99212000
15.85362494,-73.99212000
15.85618494,-73.99212000
15.85874494,-73.99212000
15.86130494,-73.99212000
15.86386494,-73.99212000
15.86642494,-73.99212000
15.86898494,-73.99212000
15.87154494,-78.46308000
15.87410494,-73.99212000
15.87666494,-73.99212000
15.87922494,-73.99212000
15.88178494,-73.99212000
15.88434494,-73.99212000
15.88690494,-73.99212000
15.88946494,-73.99212000
15.89202494,-73.99212000
15.89458494,-73.99212000
15.89714494,-73.99212000
15.89970494,-73.99212000
15.90226494,-73.99212000
15.90482494,-73.99212000
15.90738494,-73.99212000
15.90994494,-73.99212000
15.91250494,-69.50591000
15.91506494,-73.99212000
15.91762494,-73.99212000
15.92018494,-73.99212000
15.92274494,-73.99212000
15.92530494,-73.99212000
15.92786494,-73.99212000
15.93042494,-78.46308000
15.93298494,-73.99212000
15.93554494,-73.99212000
15.93810494,-73.99212000
15.94066494,-73.99212000
15.94322494,-73.99212000
15.94578494,-73.99212000
15.94834494,-78.46308000
15.95090494,-73.99212000
15.95346494,-78.46308000
15.95602494,-73.99212000
15.95858494,-78.46308000
15.96114494,-73.99212000
15.96370494,-78.46308000
15.96626494,-73.99212000
15.96882494,-73.99212000
15.97138494,-78.46308000
15.97394494,-78.46308000
15.97650494,-73.99212000
15.97906494,-78.46308000
15.98162494,-73.99212000
15.98418494,-78.46308000
15.98674494,-78.46308000
15.98930494,-78.46308000
15.99186494,-78.46308000
15.99442494,-78.46308000
15.99698494,-78.46308000
15.99954494,-73.99212000
16.00210494,-78.46308000
16.00466494,-78.46308000
16.00722494,-73.99212000
16.00978494,-78.46308000
16.01234494,-78.46308000
16.01490494,-73.99212000
16.01746494,-73.99212000
16.02002494,-78.46308000
16.02258494,-78.46308000
16.02514494,-78.46308000
16.02770494,-78.46308000
16.03026494,-78.46308000
16.03282494,-78.46308000
16.03538494,-73.99212000
16.03794494,-78.46308000
16.04050494,-78.46308000
16.04306494,-78.46308000
16.04562494,-78.46308000
16.04818494,-73.99212000
16.05074494,-78.46308000
16.05330494,-78.46308000
16.05586494,-73.99212000
16.05842494,-78.46308000
16.06098494,-73.99212000
16.06354494,-78.46308000
16.06610494,-78.46308000
16.06866494,-78.46308000
16.07122494,-78.46308000
16.07378494,-78.46308000
16.07634494,-78.46308000
16.07890494,-73.99212000
16.08146494,-78.46308000
16.08402494,-73.99212000
16.08658494,-78.46308000
16.08914494,-73.99212000
16.09170494,-78.46308000
16.09426494,-78.46308000
16.09682494,-78.46308000
16.09938494,-73.99212000
16.10194494,-73.99212000
16.10450494,-73.99212000
16.10706494,-78.46308000
16.10962494,-73.99212000
16.11218494,-73.99212000
16.11474494,-78.46308000
16.11730494,-73.99212000
16.11986494,-78.46308000
16.12242494,-73.99212000
16.12498494,-73.99212000
16.12754494,-78.46308000
16.13010494,-73.99212000
16.13266494,-78.46308000
16.13522494,-78.46308000
16.13778494,-73.99212000
16.14034494,-73.99212000
16.14290494,-73.99212000
16.14546494,-73.99212000
16.14802494,-73.99212000
16.15058494,-73.99212000
16.15314494,-78.46308000
16.15570494,-73.99212000
16.15826494,-78.46308000
16.16082494,-78.46308000
16.16338494,-73.99212000
16.16594494,-78.46308000
16.16850494,-78.46308000
16.17106494,-78.46308000
16.17362494,-73.99212000
16.17618494,-73.99212000
16.17874494,-73.99212000
16.18130494,-73.99212000
16.18386494,-73.99212000
16.18642494,-69.50591000
16.18898494,-73.99212000
16.19154494,-73.99212000
16.19410494,-73.99212000
16.19666494,-73.99212000
16.19922494,-69.50591000
16.20178494,-78.46308000
16.20434494,-69.50591000
16.20690494,-73.99212000
16.20946494,-73.99212000
16.21202494,-73.99212000
16.21458494,-73.99212000
16.21714494,-73.99212000
16.21970494,-73.99212000
16.22226494,-73.99212000
16.22482494,-73.99212000
16.22738494,-73.99212000
16.22994494,-73.99212000
16.23250494,-73.99212000
16.23506494,-69.50591000
16.23762494,-73.99212000
16.24018494,-69.50591000
16.24274494,-73.99212000
16.24530494,-73.99212000
16.24786494,-73.99212000
16.25042494,-73.99212000
16.25298494,-73.99212000
16.25554494,-73.99212000
16.25810494,-73.99212000
16.26066494,-69.50591000
16.26322494,-69.50591000
16.26578494,-73.99212000
16.26834494,-69.50591000
16.27090494,-73.99212000
16.27346494,-73.99212000
16.27602494,-73.99212000
16.27858494,-73.99212000
16.28114494,-69.50591000
16.28370494,-73.99212000
16.28626494,-73.99212000
16.28882494,-73.99212000
16.29138494,-73.99212000
16.29394494,-73.99212000
16.29650494,-73.99212000
16.29906494,-69.50591000
16.30162494,-73.99212000
16.30418494,-73.99212000
16.30674494,-73.99212000
16.30930494,-73.99212000
16.31186494,-73.99212000
16.31442494,-78.46308000
16.31698494,-73.99212000
16.31954494,-73.99212000
16.32210494,-78.46308000
16.32466494,-73.99212000
16.32722494,-73.99212000
16.32978494,-73.99212000
16.33234494,-73.99212000
16.33490494,-73.99212000
16.33746494,-73.99212000
16.34002494,-73.99212000
16.34258494,-73.99212000
16.34514494,-73.99212000
16.34770494,-73.99212000
16.35026494,-73.99212000
16.35282494,-73.99212000
16.35538494,-73.99212000
16.35794494,-73.99212000
16.36050494,-73.99212000
16.36306494,-73.99212000
16.36562494,-73.99212000
16.36818494,-73.99212000
16.37074494,-73.99212000
16.37330494,-73.99212000
16.37586494,-73.99212000
16.37842494,-78.46308000
16.38098494,-78.46308000
16.38354494,-78.46308000
16.38610494,-73.99212000
16.38866494,-73.99212000
16.39122494,-73.99212000
16.39378494,-78.46308000
16.39634494,-73.99212000
16.39890494,-73.99212000
16.40146494,-73.99212000
16.40402494,-73.99212000
16.40658494,-73.99212000
16.40914494,-73.99212000
16.41170494,-78.46308000
16.41426494,-73.99212000
16.41682494,-73.99212000
16.41938494,-73.99212000
16.42194494,-73.99212000
16.42450494,-73.99212000
16.42706494,-73.99212000
16.42962494,-78.46308000
16.43218494,-78.46308000
16.43474494,-73.99212000
16.43730494,-78.46308000
16.43986494,-73.99212000
16.44242494,-73.99212000
16.44498494,-73.99212000
16.44754494,-73.99212000
16.45010494,-73.99212000
16.45266494,-73.99212000
16.45522494,-73.99212000
16.45778494,-73.99212000
16.46034494,-73.99212000
16.46290494,-73.99212000
16.46546494,-73.99212000
16.46802494,-78.46308000
16.47058494,-78.46308000
16.47314494,-78.46308000
16.47570494,-73.99212000
16.47826494,-73.99212000
16.48082494,-73.99212000
16.48338494,-73.99212000
16.48594494,-73.99212000
16.48850494,-73.99212000
16.49106494,-73.99212000
16.49362494,-73.99212000
16.49618494,-73.99212000
16.49874494,-78.46308000
16.50130494,-73.99212000
16.50386494,-73.99212000
16.50642494,-78.46308000
16.50898494,-73.99212000
16.51154494,-73.99212000
16.51410494,-73.99212000
16.51666494,-78.46308000
16.51922494,-73.99212000
16.52178494,-78.46308000
16.52434494,-73.99212000
16.52690494,-78.46308000
16.52946494,-78.46308000
16.53202494,-73.99212000
16.53458494,-78.46308000
16.53714494,-73.99212000
16.53970494,-73.99212000
16.54226494,-78.46308000
16.54482494,-73.99212000
16.54738494,-73.99212000
16.54994494,-73.99212000
16.55250494,-73.99212000
16.55506494,-78.46308000
16.55762494,-78.46308000
16.56018494,-78.46308000
16.56274494,-73.99212000
16.56530494,-78.46308000
16.56786494,-73.99212000
16.57042494,-73.99212000
16.57298494,-73.99212000
16.57554494,-78.46308000
16.57810494,-78.46308000
16.58066494,-73.99212000
16.58322494,-78.46308000
16.58578494,-78.46308000
16.58834494,-73.99212000
16.59090494,-78.46308000
16.59346494,-73.99212000
16.59602494,-73.99212000
16.59858494,-73.99212000
16.60114494,-73.99212000
16.60370494,-78.46308000
16.60626494,-73.99212000
16.60882494,-73.99212000
16.61138494,-73.99212000
16.61394494,-78.46308000
16.61650494,-78.46308000
16.61906494,-73.99212000
16.62162494,-73.99212000
16.62418494,-78.46308000
16.62674494,-73.99212000
16.62930494,-73.99212000
16.63186494,-78.46308000
16.63442494,-78.46308000
16.63698494,-78.46308000
16.63954494,-78.46308000
16.64210494,-78.46308000
16.64466494,-78.46308000
16.64722494,-73.99212000
16.64978494,-73.99212000
16.65234494,-73.99212000
16.65490494,-73.99212000
16.65746494,-73.99212000
16.66002494,-78.46308000
16.66258494,-78.46308000
16.66514494,-73.99212000
16.66770494,-78.46308000
16.67026494,-73.99212000
16.67282494,-73.99212000
16.67538494,-73.99212000
16.67794494,-78.46308000
16.68050494,-73.99212000
16.68306494,-78.46308000
16.68562494,-78.46308000
16.68818494,-78.46308000
16.69074494,-78.46308000
16.69330494,-73.99212000
16.69586494,-73.99212000
16.69842494,-73.99212000
16.70098494,-73.99212000
16.70354494,-78.46308000
16.70610494,-73.99212000
16.70866494,-73.99212000
16.71122494,-78.46308000
16.71378494,-73.99212000
16.71634494,-73.99212000
16.71890494,-73.99212000
16.72146494,-73.99212000
16.72402494,-73.99212000
16.72658494,-73.99212000
16.72914494,-78.46308000
16.73170494,-78.46308000
16.73426494,-78.46308000
16.73682494,-73.99212000
16.73938494,-78.46308000
16.74194494,-78.46308000
16.74450494,-78.46308000
16.74706494,-73.99212000
16.74962494,-78.46308000
16.75218494,-78.46308000
16.75474494,-73.99212000
16.75730494,-78.46308000
16.75986494,-78.46308000
16.76242494,-78.46308000
16.76498494,-78.46308000
16.76754494,-78.46308000
16.77010494,-78.46308000
16.77266494,-78.46308000
16.77522494,-78.46308000
16.77778494,-73.99212000
16.78034494,-78.46308000
16.78290494,-78.46308000
16.78546494,-78.46308000
16.78802494,-78.46308000
16.79058494,-78.46308000
16.79314494,-78.46308000
16.79570494,-73.99212000
16.79826494,-73.99212000
16.80082494,-73.99212000
16.80338494,-78.46308000
16.80594494,-73.99212000
16.80850494,-78.46308000
16.81106494,-78.46308000
16.81362494,-78.46308000
16.81618494,-78.46308000
16.81874494,-78.46308000
16.82130494,-78.46308000
16.82386494,-78.46308000
16.82642494,-78.46308000
16.82898494,-78.46308000
16.83154494,-78.46308000
16.83410494,-78.46308000
16.83666494,-78.46308000
16.83922494,-78.46308000
16.84178494,-78.46308000
16.84434494,-78.46308000
16.84690494,-73.99212000
16.84946494,-73.99212000
16.85202494,-78.46308000
16.85458494,-78.46308000
16.85714494,-78.46308000
16.85970494,-78.46308000
16.86226494,-78.46308000
16.86482494,-78.46308000
16.86738494,-78.46308000
16.86994494,-73.99212000
16.87250494,-73.99212000
16.87506494,-73.99212000
16.87762494,-78.46308000
16.88018494,-78.46308000
16.88274494,-73.99212000
16.88530494,-73.99212000
16.88786494,-78.46308000
16.89042494,-78.46308000
16.89298494,-73.99212000
16.89554494,-73.99212000
16.89810494,-73.99212000
16.90066494,-78.46308000
16.90322494,-73.99212000
16.90578494,-73.99212000
16.90834494,-73.99212000
16.91090494,-78.46308000
16.91346494,-73.99212000
16.91602494,-73.99212000
16.91858494,-78.46308000
16.92114494,-78.46308000
16.92370494,-78.46308000
16.92626494,-73.99212000
16.92882494,-78.46308000
16.93138494,-73.99212000
16.93394494,-73.99212000
16.93650494,-73.99212000
16.93906494,-73.99212000
16.94162494,-73.99212000
16.94418494,-73.99212000
16.94674494,-73.99212000
16.94930494,-73.99212000
16.95186494,-73.99212000
16.95442494,-73.99212000
16.95698494,-78.46308000
16.95954494,-73.99212000
16.96210494,-73.99212000
16.96466494,-78.46308000
16.96722494,-78.46308000
16.96978494,-73.99212000
16.97234494,-73.99212000
16.97490494,-73.99212000
16.97746494,-73.99212000
16.98002494,-73.99212000
16.98258494,-73.99212000
16.98514494,-73.99212000
16.98770494,-73.99212000
16.99026494,-73.99212000
16.99282494,-73.99212000
16.99538494,-78.46308000
16.99794494,-73.99212000
17.00050494,-73.99212000
17.00306494,-69.50591000
17.00562494,-69.50591000
17.00818494,-73.99212000
17.01074494,-73.99212000
17.01330494,-73.99212000
17.01586494,-73.99212000
17.01842494,-73.99212000
17.02098494,-73.99212000
17.02354494,-73.99212000
17.02610494,-73.99212000
17.02866494,-73.99212000
17.03122494,-73.99212000
17.03378494,-73.99212000
17.03634494,-73.99212000
17.03890494,-73.99212000
17.04146494,-69.50591000
17.04402494,-73.99212000
17.04658494,-73.99212000
17.04914494,-73.99212000
17.05170494,-73.99212000
17.05426494,-73.99212000
17.05682494,-73.99212000
17.05938494,-69.50591000
17.06194494,-73.99212000
17.06450494,-73.99212000
17.06706494,-73.99212000
17.06962494,-69.50591000
17.07218494,-73.99212000
17.07474494,-69.50591000
17.07730494,-73.99212000
17.07986494,-69.50591000
17.08242494,-69.50591000
17.08498494,-73.99212000
17.08754494,-73.99212000
17.09010494,-69.50591000
17.09266494,-73.99212000
17.09522494,-69.50591000
17.09778494,-69.50591000
17.10034494,-69.50591000
17.10290494,-69.50591000
17.10546494,-69.50591000
17.10802494,-69.50591000
17.11058494,-69.50591000
17.11314494,-69.50591000
17.11570494,-73.99212000
17.11826494,-73.99212000
17.12082494,-73.99212000
17.12338494,-69.50591000
17.12594494,-69.50591000
17.12850494,-69.50591000
17.13106494,-69.50591000
17.13362494,-69.50591000
17.13618494,-69.50591000
17.13874494,-69.50591000
17.14130494,-73.99212000
17.14386494,-69.50591000
17.14642494,-69.50591000
17.14898494,-69.50591000
17.15154494,-69.50591000
17.15410494,-69.50591000
17.15666494,-73.99212000
17.15922494,-69.50591000
17.16178494,-69.50591000
17.16434494,-69.50591000
17.16690494,-73.99212000
17.16946494,-69.50591000
17.17202494,-69.50591000
17.17458494,-69.50591000
17.17714494,-69.50591000
17.17970494,-73.99212000
17.18226494,-69.50591000
17.18482494,-69.50591000
17.18738494,-73.99212000
17.18994494,-69.50591000
17.19250494,-69.50591000
17.19506494,-69.50591000
17.19762494,-69.50591000
17.20018494,-69.50591000
17.20274494,-69.50591000
17.20530494,-69.50591000
17.20786494,-69.50591000
17.21042494,-69.50591000
17.21298494,-69.50591000
17.21554494,-69.50591000
17.21810494,-69.50591000
17.22066494,-69.50591000
17.22322494,-73.99212000
17.22578494,-73.99212000
17.22834494,-69.50591000
17.23090494,-69.50591000
17.23346494,-69.50591000
17.23602494,-73.99212000
17.23858494,-73.99212000
17.24114494,-69.50591000
17.24370494,-69.50591000
17.24626494,-69.50591000
17.24882494,-73.99212000
17.25138494,-69.50591000
17.25394494,-69.50591000
17.25650494,-69.50591000
17.25906494,-69.50591000
17.26162494,-73.99212000
17.26418494,-69.50591000
17.26674494,-73.99212000
17.26930494,-69.50591000
17.27186494,-69.50591000
17.27442494,-69.50591000
17.27698494,-73.99212000
17.27954494,-69.50591000
17.28210494,-73.99212000
17.28466494,-69.50591000
17.28722494,-69.50591000
17.28978494,-69.50591000
17.29234494,-69.50591000
17.29490494,-69.50591000
17.29746494,-69.50591000
17.30002494,-69.50591000
17.30258494,-73.99212000
17.30514494,-73.99212000
17.30770494,-73.99212000
17.31026494,-73.99212000
17.31282494,-73.99212000
17.31538494,-73.99212000
17.31794494,-73.99212000
17.32050494,-73.99212000
17.32306494,-69.50591000
17.32562494,-73.99212000
17.32818494,-73.99212000
17.33074494,-69.50591000
17.33330494,-73.99212000
17.33586494,-69.50591000
17.33842494,-69.50591000
17.34098494,-73.99212000
17.34354494,-69.50591000
17.34610494,-73.99212000
17.34866494,-73.99212000
17.35122494,-73.99212000
17.35378494,-73.99212000
17.35634494,-73.99212000
17.35890494,-73.99212000
17.36146494,-69.50591000
17.36402494,-69.50591000
17.36658494,-69.50591000
17.36914494,-69.50591000
17.37170494,-73.99212000
17.37426494,-69.50591000
17.37682494,-69.50591000
17.37938494,-73.99212000
17.38194494,-69.50591000
17.38450494,-69.50591000
17.38706494,-69.50591000
17.38962494,-73.99212000
17.39218494,-69.50591000
17.39474494,-69.50591000
17.39730494,-69.50591000
17.39986493,-73.99212000
17.40242493,-73.99212000
17.40498493,-69.50591000
17.40754493,-69.50591000
17.41010493,-73.99212000
17.41266493,-73.99212000
17.41522493,-69.50591000
17.41778493,-69.50591000
17.42034493,-73.99212000
17.42290493,-69.50591000
17.42546493,-73.99212000
17.42802493,-73.99212000
17.43058493,-69.50591000
17.43314493,-73.99212000
17.43570493,-69.50591000
17.43826493,-69.50591000
17.44082493,-69.50591000
17.44338493,-73.99212000
17.44594493,-73.99212000
17.44850493,-73.99212000
17.45106493,-73.99212000
17.45362493,-73.99212000
17.45618493,-69.50591000
17.45874493,-73.99212000
17.46130493,-69.50591000
17.46386493,-73.99212000
17.46642493,-73.99212000
17.46898493,-73.99212000
17.47154493,-73.99212000
17.47410493,-73.99212000
17.47666493,-73.99212000
17.47922493,-73.99212000
17.48178493,-69.50591000
17.48434493,-69.50591000
17.48690493,-69.50591000
17.48946493,-73.99212000
17.49202493,-73.99212000
17.49458493,-73.99212000
17.49714493,-73.99212000
17.49970493,-73.99212000
17.50226493,-69.50591000
17.50482493,-69.50591000
17.50738493,-73.99212000
17.50994493,-69.50591000
17.51250493,-73.99212000
17.51506493,-73.99212000
17.51762493,-73.99212000
17.52018493,-73.99212000
17.52274493,-69.50591000
17.52530493,-73.99212000
17.52786493,-78.46308000
17.53042493,-73.99212000
17.53298493,-73.99212000
17.53554493,-73.99212000
17.53810493,-73.99212000
17.54066493,-73.99212000
17.54322493,-73.99212000
17.54578493,-73.99212000
17.54834493,-73.99212000
17.55090493,-73.99212000
17.55346493,-69.50591000
17.55602493,-73.99212000
17.55858493,-73.99212000
17.56114493,-73.99212000
17.56370493,-73.99212000
17.56626493,-73.99212000
17.56882493,-73.99212000
17.57138493,-73.99212000
17.57394493,-69.50591000
17.57650493,-73.99212000
17.57906493,-73.99212000
17.58162493,-73.99212000
17.58418493,-78.46308000
17.58674493,-73.99212000
17.58930493,-73.99212000
17.59186493,-73.99212000
17.59442493,-73.99212000
17.59698493,-78.46308000
17.59954493,-78.46308000
17.60210493,-73.99212000
17.60466493,-73.99212000
17.60722493,-73.99212000
17.60978493,-73.99212000
17.61234493,-73.99212000
17.61490493,-73.99212000
17.61746493,-73.99212000
17.62002493,-78.46308000
17.62258493,-73.99212000
17.62514493,-78.46308000
17.62770493,-73.99212000
17.63026493,-73.99212000
17.63282493,-69.50591000
17.63538493,-69.50591000
17.63794493,-73.99212000
17.64050493,-73.99212000
17.64306493,-73.99212000
17.64562493,-73.99212000
17.64818493,-73.99212000
17.65074493,-73.99212000
17.65330493,-73.99212000
17.65586493,-73.99212000
17.65842493,-73.99212000
17.66098493,-73.99212000
17.66354493,-73.99212000
17.66610493,-78.46308000
17.66866493,-78.46308000
17.67122493,-78.46308000
17.67378493,-73.99212000
17.67634493,-73.99212000
17.67890493,-73.99212000
17.68146493,-73.99212000
17.68402493,-78.46308000
17.68658493,-73.99212000
17.68914493,-73.99212000
17.69170493,-73.99212000
17.69426493,-73.99212000
17.69682493,-78.46308000
17.69938493,-73.99212000
17.70194493,-73.99212000
17.70450493,-78.46308000
17.70706493,-78.46308000
17.70962493,-73.99212000
17.71218493,-73.99212000
17.71474493,-73.99212000
17.71730493,-73.99212000
17.71986493,-73.99212000
17.72242493,-78.46308000
17.72498493,-78.46308000
17.72754493,-73.99212000
17.73010493,-73.99212000
17.73266493,-73.99212000
17.73522493,-73.99212000
17.73778493,-73.99212000
17.74034493,-73.99212000
17.74290493,-73.99212000
17.74546493,-73.99212000
17.74802493,-73.99212000
17.75058493,-78.46308000
17.75314493,-73.99212000
17.75570493,-73.99212000
17.75826493,-73.99212000
17.76082493,-73.99212000
17.76338493,-73.99212000
17.76594493,-73.99212000
17.76850493,-73.99212000
17.77106493,-73.99212000
17.77362493,-73.99212000
17.77618493,-78.46308000
17.77874493,-73.99212000
17.78130493,-73.99212000
17.78386493,-73.99212000
17.78642493,-73.99212000
17.78898493,-73.99212000
17.79154493,-73.99212000
17.79410493,-73.99212000
17.79666493,-73.99212000
17.79922493,-78.46308000
17.80178493,-73.99212000
17.80434493,-73.99212000
17.80690493,-73.99212000
17.80946493,-73.99212000
17.81202493,-73.99212000
17.81458493,-69.50591000
17.81714493,-73.99212000
17.81970493,-69.50591000
17.82226493,-73.99212000
17.82482493,-73.99212000
17.82738493,-73.99212000
17.82994493,-73.99212000
17.83250493,-73.99212000
17.83506493,-73.99212000
17.83762493,-73.99212000
17.84018493,-73.99212000
17.84274493,-69.50591000
17.84530493,-73.99212000
17.84786493,-73.99212000
17.85042493,-69.50591000
17.85298493,-69.50591000
17.85554493,-69.50591000
17.85810493,-73.99212000
17.86066493,-73.99212000
17.86322493,-73.99212000
17.86578493,-69.50591000
17.86834493,-73.99212000
17.87090493,-69.50591000
17.87346493,-73.99212000
17.87602493,-73.99212000
17.87858493,-73.99212000
17.88114493,-73.99212000
17.88370493,-69.50591000
17.88626493,-73.99212000
17.88882493,-73.99212000
17.89138493,-73.99212000
17.89394493,-73.99212000
17.89650493,-73.99212000
17.89906493,-73.99212000
17.90162493,-73.99212000
17.90418493,-73.99212000
17.90674493,-73.99212000
17.90930493,-73.99212000
17.91186493,-69.50591000
17.91442493,-73.99212000
17.91698493,-73.99212000
17.91954493,-73.99212000
17.92210493,-73.99212000
17.92466493,-69.50591000
17.92722493,-73.99212000
17.92978493,-73.99212000
17.93234493,-73.99212000
17.93490493,-73.99212000
17.93746493,-73.99212000
17.94002493,-73.99212000
17.94258493,-73.99212000
17.94514493,-73.99212000
17.94770493,-73.99212000
17.95026493,-73.99212000
17.95282493,-73.99212000
17.95538493,-73.99212000
17.95794493,-73.99212000
17.96050493,-73.99212000
17.96306493,-78.46308000
17.96562493,-69.50591000
17.96818493,-73.99212000
17.97074493,-73.99212000
17.97330493,-73.99212000
17.97586493,-69.50591000
17.97842493,-73.99212000
17.98098493,-73.99212000
17.98354493,-73.99212000
17.98610493,-73.99212000
17.98866493,-73.99212000
17.99122493,-73.99212000
17.99378493,-73.99212000
17.99634493,-73.99212000
17.99890493,-73.99212000
18.00146493,-73.99212000
18.00402493,-73.99212000
18.00658493,-73.99212000
18.00914493,-73.99212000
18.01170493,-73.99212000
18.01426493,-73.99212000
18.01682493,-73.99212000
18.01938493,-73.99212000
18.02194493,-73.99212000
18.02450493,-73.99212000
18.02706493,-69.50591000
18.02962493,-73.99212000
18.03218493,-78.46308000
18.03474493,-78.46308000
18.03730493,-73.99212000
18.03986493,-73.99212000
18.04242493,-73.99212000
18.04498493,-73.99212000
18.04754493,-73.99212000
18.05010493,-73.99212000
18.05266493,-73.99212000
18.05522493,-73.99212000
18.05778493,-78.46308000
18.06034493,-73.99212000
18.06290493,-73.99212000
18.06546493,-73.99212000
18.06802493,-73.99212000
18.07058493,-69.50591000
18.07314493,-73.99212000
18.07570493,-73.99212000
18.07826493,-73.99212000
18.08082493,-73.99212000
18.08338493,-73.99212000
18.08594493,-73.99212000
18.08850493,-73.99212000
18.09106493,-73.99212000
18.09362493,-73.99212000
18.09618493,-73.99212000
18.09874493,-69.50591000
18.10130493,-73.99212000
18.10386493,-73.99212000
18.10642493,-73.99212000
18.10898493,-69.50591000
18.11154493,-73.99212000
18.11410493,-73.99212000
18.11666493,-73.99212000
18.11922493,-73.99212000
18.12178493,-73.99212000
18.12434493,-73.99212000
18.12690493,-73.99212000
18.12946493,-73.99212000
18.13202493,-73.99212000
18.13458493,-69.50591000
18.13714493,-73.99212000
18.13970493,-73.99212000
18.14226493,-73.99212000
18.14482493,-73.99212000
18.14738493,-73.99212000
18.14994493,-69.50591000
18.15250493,-73.99212000
18.15506493,-73.99212000
18.15762493,-73.99212000
18.16018493,-73.99212000
18.16274493,-73.99212000
18.16530493,-73.99212000
18.16786493,-73.99212000
18.17042493,-73.99212000
18.17298493,-73.99212000
18.17554493,-69.50591000
18.17810493,-73.99212000
18.18066493,-73.99212000
18.18322493,-73.99212000
18.18578493,-73.99212000
18.18834493,-73.99212000
18.19090493,-73.99212000
18.19346493,-73.99212000
18.19602493,-73.99212000
18.19858493,-73.99212000
18.20114493,-73.99212000
18.20370493,-73.99212000
18.20626493,-73.99212000
18.20882493,-73.99212000
18.21138493,-73.99212000
18.21394493,-73.99212000
18.21650493,-73.99212000
18.21906493,-78.46308000
18.22162493,-73.99212000
18.22418493,-73.99212000
18.22674493,-73.99212000
18.22930493,-73.99212000
18.23186493,-73.99212000
18.23442493,-73.99212000
18.23698493,-73.99212000
18.23954493,-73.99212000
18.24210493,-73.99212000
18.24466493,-73.99212000
18.24722493,-73.99212000
18.24978493,-73.99212000
18.25234493,-73.99212000
18.25490493,-73.99212000
18.25746493,-73.99212000
18.26002493,-78.46308000
18.26258493,-73.99212000
18.26514493,-73.99212000
18.26770493,-73.99212000
18.27026493,-73.99212000
18.27282493,-73.99212000
18.27538493,-73.99212000
18.27794493,-73.99212000
18.28050493,-78.46308000
18.28306493,-73.99212000
18.28562493,-73.99212000
18.28818493,-73.99212000
18.29074493,-73.99212000
18.29330493,-69.50591000
18.29586493,-78.46308000
18.29842493,-73.99212000
18.30098493,-69.50591000
18.30354493,-73.99212000
18.30610493,-73.99212000
18.30866493,-73.99212000
18.31122493,-73.99212000
18.31378493,-73.99212000
18.31634493,-78.46308000
18.31890493,-73.99212000
18.32146493,-73.99212000
18.32402493,-73.99212000
18.32658493,-73.99212000
18.32914493,-73.99212000
18.33170493,-73.99212000
18.33426493,-73.99212000
18.33682493,-73.99212000
18.33938493,-73.99212000
18.34194493,-73.99212000
18.34450493,-73.99212000
18.34706493,-73.99212000
18.34962493,-73.99212000
18.35218493,-73.99212000
18.35474493,-78.46308000
18.35730493,-73.99212000
18.35986493,-73.99212000
18.36242493,-73.99212000
18.36498493,-78.46308000
18.36754493,-78.46308000
18.37010493,-73.99212000
18.37266493,-73.99212000
18.37522493,-73.99212000
18.37778493,-73.99212000
18.38034493,-73.99212000
18.38290493,-78.46308000
18.38546493,-78.46308000
18.38802493,-73.99212000
18.39058493,-73.99212000
18.39314493,-73.99212000
18.39570493,-73.99212000
18.39826493,-73.99212000
18.40082493,-78.46308000
18.40338493,-73.99212000
18.40594493,-78.46308000
18.40850493,-73.99212000
18.41106493,-78.46308000
18.41362493,-73.99212000
18.41618493,-78.46308000
18.41874493,-73.99212000
18.42130493,-73.99212000
18.42386493,-73.99212000
18.42642493,-78.46308000
18.42898493,-78.46308000
18.43154493,-78.46308000
18.43410493,-78.46308000
18.43666493,-73.99212000
18.43922493,-78.46308000
18.44178493,-78.46308000
18.44434493,-78.46308000
18.44690493,-73.99212000
18.44946493,-73.99212000
18.45202493,-73.99212000
18.45458493,-78.46308000
18.45714493,-73.99212000
18.45970493,-78.46308000
18.46226493,-78.46308000
18.46482493,-73.99212000
18.46738493,-78.46308000
18.46994493,-73.99212000
18.47250493,-78.46308000
18.47506493,-78.46308000
18.47762493,-78.46308000
18.48018493,-78.46308000
18.48274493,-78.46308000
18.48530493,-78.46308000
18.48786493,-78.46308000
18.49042493,-78.46308000
18.49298493,-78.46308000
18.49554493,-78.46308000
18.49810493,-78.46308000
18.50066493,-73.99212000
18.50322493,-73.99212000
18.50578493,-78.46308000
18.50834493,-78.46308000
18.51090493,-73.99212000
18.51346493,-78.46308000
18.51602493,-78.46308000
18.51858493,-78.46308000
18.52114493,-78.46308000
18.52370493,-78.46308000
18.52626493,-78.46308000
18.52882493,-78.46308000
18.53138493,-78.46308000
18.53394493,-78.46308000
18.53650493,-73.99212000
18.53906493,-73.99212000
18.54162493,-78.46308000
18.54418493,-78.46308000
18.54674493,-78.46308000
18.54930493,-78.46308000
18.55186493,-78.46308000
18.55442493,-73.99212000
18.55698493,-73.99212000
18.55954493,-78.46308000
18.56210493,-78.46308000
18.56466493,-78.46308000
18.56722493,-73.99212000
18.56978493,-78.46308000
18.57234493,-73.99212000
18.57490493,-73.99212000
18.57746493,-78.46308000
18.58002493,-73.99212000
18.58258493,-73.99212000
18.58514493,-73.99212000
18.58770493,-78.46308000
18.59026493,-73.99212000
18.59282493,-73.99212000
18.59538493,-78.46308000
18.59794493,-78.46308000
18.60050493,-73.99212000
18.60306493,-78.46308000
18.60562493,-73.99212000
18.60818493,-73.99212000
18.61074493,-78.46308000
18.61330493,-73.99212000
18.61586493,-73.99212000
18.61842493,-73.99212000
18.62098493,-73.99212000
18.62354493,-78.46308000
18.62610493,-73.99212000
18.62866493,-73.99212000
18.63122493,-73.99212000
18.63378493,-73.99212000
18.63634493,-73.99212000
18.63890493,-73.99212000
18.64146493,-73.99212000
18.64402493,-73.99212000
18.64658493,-73.99212000
18.64914493,-73.99212000
18.65170493,-73.99212000
18.65426493,-73.99212000
18.65682493,-73.99212000
18.65938493,-73.99212000
18.66194493,-73.99212000
18.66450493,-73.99212000
18.66706493,-73.99212000
18.66962493,-78.46308000
18.67218493,-73.99212000
18.67474493,-73.99212000
18.67730493,-73.99212000
18.67986493,-73.99212000
